Wavelength(nm)  Intensity
690.49	6207.00
690.67	6010.00
690.84	6043.00
691.02	5990.00
691.19	5826.00
691.36	5865.00
691.54	6298.00
691.71	6079.00
691.89	5619.00
692.06	5655.00
692.24	6295.00
692.41	5639.00
692.59	6427.00
692.76	6068.00
692.93	6024.00
693.11	6013.00
693.28	6264.00
693.46	6251.00
693.63	6161.00
693.80	6210.00
693.98	6250.00
694.15	6141.00
694.33	5677.00
694.50	6331.00
694.67	6426.00
694.85	6756.00
695.02	6297.00
695.20	6009.00
695.37	5661.00
695.54	6505.00
695.72	5698.00
695.89	5740.00
696.07	6125.00
696.24	6266.00
696.41	6538.00
696.59	5907.00
696.76	6521.00
696.93	6969.00
697.11	5624.00
697.28	6510.00
697.45	6612.00
697.63	6537.00
697.80	6457.00
697.97	6521.00
698.15	6039.00
698.32	6239.00
698.49	5864.00
698.67	6176.00
698.84	5649.00
699.01	5517.00
699.19	6289.00
699.36	5964.00
699.53	6927.00
699.70	5830.00
699.88	6380.00
700.05	6585.00
700.22	6516.00
700.40	6509.00
700.57	6184.00
700.74	5961.00
700.91	6089.00
701.09	6878.00
701.26	6122.00
701.43	6441.00
701.60	5839.00
701.78	6142.00
701.95	6789.00
702.12	5487.00
702.29	5671.00
702.47	5769.00
702.64	6285.00
702.81	6433.00
702.98	6048.00
703.16	5583.00
703.33	5624.00
703.50	6921.00
703.67	5832.00
703.85	6213.00
704.02	6004.00
704.19	5851.00
704.36	6528.00
704.53	6367.00
704.71	6905.00
704.88	6733.00
705.05	6003.00
705.22	5977.00
705.39	6309.00
705.56	6014.00
705.74	6244.00
705.91	6515.00
706.08	5699.00
706.25	6381.00
706.42	6134.00
706.59	6377.00
706.77	5957.00
706.94	5910.00
707.11	6231.00
707.28	6320.00
707.45	6214.00
707.62	5970.00
707.80	5716.00
707.97	6418.00
708.14	5877.00
708.31	5919.00
708.48	6016.00
708.65	6003.00
708.82	6355.00
708.99	6830.00
709.16	6102.00
709.34	6130.00
709.51	5954.00
709.68	6059.00
709.85	6534.00
710.02	5730.00
710.19	7070.00
710.36	6663.00
710.53	5923.00
710.70	5946.00
710.87	5922.00
711.04	5886.00
711.22	6086.00
711.39	6417.00
711.56	6018.00
711.73	6009.00
711.90	6114.00
712.07	6454.00
712.24	6111.00
712.41	6394.00
712.58	5947.00
712.75	6484.00
712.92	6341.00
713.09	6325.00
713.26	6051.00
713.43	6051.00
713.60	6755.00
713.77	6220.00
713.94	6698.00
714.11	5961.00
714.28	8054.00
714.45	5920.00
714.62	6003.00
714.79	5983.00
714.96	5624.00
715.13	6156.00
715.30	6683.00
715.47	5545.00
715.64	6334.00
715.81	6032.00
715.98	6231.00
716.15	5978.00
716.32	5901.00
716.49	6280.00
716.66	5742.00
716.83	6330.00
717.00	6753.00
717.17	5712.00
717.34	6163.00
717.51	6409.00
717.68	6923.00
717.85	6167.00
718.02	6312.00
718.19	6000.00
718.35	6001.00
718.52	6379.00
718.69	5760.00
718.86	6572.00
719.03	6494.00
719.20	6439.00
719.37	6232.00
719.54	6371.00
719.71	5952.00
719.88	6346.00
720.05	6312.00
720.21	5946.00
720.38	6244.00
720.55	6408.00
720.72	6137.00
720.89	6213.00
721.06	6334.00
721.23	6205.00
721.40	6548.00
721.56	5654.00
721.73	6430.00
721.90	5915.00
722.07	6025.00
722.24	6873.00
722.41	6215.00
722.58	6550.00
722.74	5643.00
722.91	5942.00
723.08	6098.00
723.25	6374.00
723.42	6662.00
723.59	6341.00
723.75	6172.00
723.92	6122.00
724.09	5673.00
724.26	6319.00
724.43	5771.00
724.59	6030.00
724.76	6579.00
724.93	7037.00
725.10	5855.00
725.27	6287.00
725.43	6164.00
725.60	6067.00
725.77	6369.00
725.94	6598.00
726.10	6265.00
726.27	6738.00
726.44	5951.00
726.61	6833.00
726.78	5956.00
726.94	5718.00
727.11	6230.00
727.28	5919.00
727.45	6823.00
727.61	6240.00
727.78	6234.00
727.95	6705.00
728.11	6605.00
728.28	6486.00
728.45	6218.00
728.62	5805.00
728.78	6578.00
728.95	6499.00
729.12	6341.00
729.29	6094.00
729.45	6045.00
729.62	6743.00
729.79	6158.00
729.95	6036.00
730.12	6450.00
730.29	6543.00
730.45	6951.00
730.62	6236.00
730.79	6709.00
730.95	6085.00
731.12	6451.00
731.29	6733.00
731.45	6062.00
731.62	6891.00
731.79	7016.00
731.95	6743.00
732.12	6611.00
732.29	6672.00
732.45	7403.00
732.62	6409.00
732.79	6624.00
732.95	6260.00
733.12	6529.00
733.28	7241.00
733.45	6605.00
733.62	7022.00
733.78	6362.00
733.95	7026.00
734.12	6702.00
734.28	6503.00
734.45	6293.00
734.61	5754.00
734.78	6477.00
734.95	6729.00
735.11	6571.00
735.28	6688.00
735.44	6794.00
735.61	6718.00
735.77	7412.00
735.94	7497.00
736.11	6790.00
736.27	6470.00
736.44	6728.00
736.60	6619.00
736.77	6434.00
736.93	6639.00
737.10	7883.00
737.26	6586.00
737.43	6592.00
737.60	6268.00
737.76	6693.00
737.93	5966.00
738.09	6503.00
738.26	6431.00
738.42	6311.00
738.59	6406.00
738.75	7069.00
738.92	6959.00
739.08	6470.00
739.25	6063.00
739.41	6438.00
739.58	6231.00
739.74	7045.00
739.91	6590.00
740.07	6769.00
740.24	6825.00
740.40	6201.00
740.57	6645.00
740.73	7434.00
740.90	5957.00
741.06	6293.00
741.23	5963.00
741.39	7165.00
741.55	6380.00
741.72	6450.00
741.88	6042.00
742.05	6572.00
742.21	6126.00
742.38	6001.00
742.54	5868.00
742.71	6127.00
742.87	6380.00
743.03	5844.00
743.20	6833.00
743.36	5843.00
743.53	6067.00
743.69	6272.00
743.86	6322.00
744.02	5827.00
744.18	5990.00
744.35	7311.00
744.51	6276.00
744.67	6338.00
744.84	5872.00
745.00	6675.00
745.17	6435.00
745.33	6844.00
745.49	6931.00
745.66	6136.00
745.82	7539.00
745.99	6163.00
746.15	6500.00
746.31	6579.00
746.48	6912.00
746.64	6321.00
746.80	6593.00
746.97	5891.00
747.13	6385.00
747.29	5508.00
747.46	5975.00
747.62	6498.00
747.78	5958.00
747.95	5983.00
748.11	6107.00
748.27	6283.00
748.44	6372.00
748.60	6427.00
748.76	6637.00
748.92	6629.00
749.09	6560.00
749.25	6326.00
749.41	5803.00
749.58	6417.00
749.74	6610.00
749.90	5933.00
750.07	5882.00
750.23	6137.00
750.39	5992.00
750.55	6952.00
750.72	5989.00
750.88	6303.00
751.04	6217.00
751.20	6857.00
751.37	5556.00
751.53	6808.00
751.69	5956.00
751.85	6277.00
752.02	6086.00
752.18	6258.00
752.34	7084.00
752.50	6613.00
752.67	6354.00
752.83	5854.00
752.99	6302.00
753.15	6754.00
753.31	6571.00
753.48	6570.00
753.64	5895.00
753.80	6122.00
753.96	6284.00
754.12	6028.00
754.29	6222.00
754.45	6423.00
754.61	6275.00
754.77	5549.00
754.93	5447.00
755.09	6076.00
755.26	6289.00
755.42	6602.00
755.58	6497.00
755.74	6516.00
755.90	6223.00
756.06	6043.00
756.23	6164.00
756.39	6189.00
756.55	5657.00
756.71	6137.00
756.87	6241.00
757.03	6141.00
757.19	5760.00
757.36	6113.00
757.52	6443.00
757.68	6331.00
757.84	6739.00
758.00	6345.00
758.16	6765.00
758.32	5682.00
758.48	6255.00
758.64	5680.00
758.80	6032.00
758.97	6529.00
759.13	6086.00
759.29	5805.00
759.45	6173.00
759.61	6108.00
759.77	5861.00
759.93	6021.00
760.09	6668.00
760.25	6398.00
760.41	5798.00
760.57	8611.00
760.73	5999.00
760.89	6358.00
761.05	5673.00
761.21	6291.00
761.38	5739.00
761.54	6378.00
761.70	6928.00
761.86	6472.00
762.02	6267.00
762.18	6258.00
762.34	6594.00
762.50	6483.00
762.66	6260.00
762.82	6161.00
762.98	5517.00
763.14	6544.00
763.30	6716.00
763.46	6412.00
763.62	7546.00
763.78	6695.00
763.94	5894.00
764.10	5904.00
764.26	5957.00
764.42	6374.00
764.58	6792.00
764.74	5982.00
764.90	6321.00
765.05	6237.00
765.21	5589.00
765.37	6383.00
765.53	6907.00
765.69	5906.00
765.85	6528.00
766.01	5960.00
766.17	5755.00
766.33	6138.00
766.49	6297.00
766.65	6520.00
766.81	6275.00
766.97	5993.00
767.13	5910.00
767.29	6191.00
767.44	5818.00
767.60	5972.00
767.76	6385.00
767.92	6268.00
768.08	6350.00
768.24	5720.00
768.40	6129.00
768.56	5962.00
768.72	6012.00
768.88	6953.00
769.03	6402.00
769.19	5466.00
769.35	6222.00
769.51	6486.00
769.67	6243.00
769.83	6614.00
769.99	5925.00
770.14	5756.00
770.30	5629.00
770.46	6332.00
770.62	6580.00
770.78	6376.00
770.94	6392.00
771.09	5766.00
771.25	5766.00
771.41	6203.00
771.57	6697.00
771.73	6674.00
771.89	6915.00
772.04	6300.00
772.20	6079.00
772.36	6354.00
772.52	6548.00
772.68	6411.00
772.83	6147.00
772.99	6038.00
773.15	6510.00
773.31	6109.00
773.46	6261.00
773.62	6392.00
773.78	5753.00
773.94	6176.00
774.10	6683.00
774.25	6353.00
774.41	6181.00
774.57	6332.00
774.73	6238.00
774.88	5773.00
775.04	5960.00
775.20	6259.00
775.36	5300.00
775.51	5496.00
775.67	6077.00
775.83	6485.00
775.98	6150.00
776.14	7101.00
776.30	6579.00
776.46	6446.00
776.61	6620.00
776.77	6371.00
776.93	6558.00
777.08	5783.00
777.24	5999.00
777.40	6225.00
777.56	6167.00
777.71	6631.00
777.87	6804.00
778.03	5313.00
778.18	6650.00
778.34	5761.00
778.50	6194.00
778.65	6366.00
778.81	6324.00
778.97	6205.00
779.12	6329.00
779.28	5874.00
779.44	6485.00
779.59	6482.00
779.75	6389.00
779.90	6139.00
780.06	6872.00
780.22	6754.00
780.37	6946.00
780.53	6334.00
780.69	6511.00
780.84	5957.00
781.00	7336.00
781.15	6501.00
781.31	5747.00
781.47	6705.00
781.62	6221.00
781.78	6567.00
781.93	5721.00
782.09	6858.00
782.25	6139.00
782.40	5858.00
782.56	6210.00
782.71	6231.00
782.87	6479.00
783.02	6339.00
783.18	6441.00
783.34	6971.00
783.49	6382.00
783.65	6994.00
783.80	6584.00
783.96	5905.00
784.11	6266.00
784.27	6621.00
784.42	6482.00
784.58	7290.00
784.73	5868.00
784.89	6363.00
785.05	6244.00
785.20	6948.00
785.36	6044.00
785.51	6573.00
785.67	6260.00
785.82	6406.00
785.98	7410.00
786.13	6419.00
786.29	5964.00
786.44	6819.00
786.60	5921.00
786.75	6489.00
786.91	6604.00
787.06	5968.00
787.21	6292.00
787.37	6570.00
787.52	6111.00
787.68	6667.00
787.83	6323.00
787.99	6219.00
788.14	7003.00
788.30	5999.00
788.45	6547.00
788.61	6496.00
788.76	6706.00
788.91	6837.00
789.07	6267.00
789.22	6706.00
789.38	6485.00
789.53	6489.00
789.69	6634.00
789.84	6959.00
789.99	6160.00
790.15	6026.00
790.30	6672.00
790.46	6857.00
790.61	6557.00
790.76	6565.00
790.92	6619.00
791.07	6270.00
791.23	6310.00
791.38	6449.00
791.53	6662.00
791.69	6301.00
791.84	7758.00
791.99	6476.00
792.15	5954.00
792.30	6714.00
792.46	7351.00
792.61	6498.00
792.76	6535.00
792.92	6357.00
793.07	6639.00
793.22	6460.00
793.38	6180.00
793.53	7374.00
793.68	6861.00
793.84	6359.00
793.99	6410.00
794.14	6821.00
794.30	6342.00
794.45	6201.00
794.60	7148.00
794.75	6555.00
794.91	6978.00
795.06	6402.00
795.21	6975.00
795.37	6232.00
795.52	6918.00
795.67	6298.00
795.83	7123.00
795.98	6649.00
796.13	6678.00
796.28	6761.00
796.44	6745.00
796.59	6012.00
796.74	5892.00
796.89	7368.00
797.05	6086.00
797.20	5994.00
797.35	6022.00
797.50	6485.00
797.66	6948.00
797.81	6408.00
797.96	6869.00
798.11	6391.00
798.27	6515.00
798.42	5291.00
798.57	14694.00
798.72	7037.00
798.87	6403.00
799.03	6462.00
799.18	6451.00
799.33	6260.00
799.48	6306.00
799.63	6788.00
799.79	6280.00
799.94	5938.00
800.09	6511.00
800.24	6188.00
800.39	6882.00
800.54	7095.00
800.70	6674.00
800.85	6410.00
801.00	6924.00
801.15	6243.00
801.30	6290.00
801.45	6695.00
801.61	6176.00
801.76	6482.00
801.91	6670.00
802.06	6562.00
802.21	6709.00
802.36	5695.00
802.51	6836.00
802.67	6566.00
802.82	6539.00
802.97	6443.00
803.12	6931.00
803.27	6439.00
803.42	6434.00
803.57	6471.00
803.72	5985.00
803.87	5967.00
804.02	6844.00
804.18	6270.00
804.33	6627.00
804.48	7309.00
804.63	6201.00
804.78	6252.00
804.93	6026.00
805.08	6201.00
805.23	6194.00
805.38	6138.00
805.53	6461.00
805.68	5933.00
805.83	5746.00
805.98	6006.00
806.13	5748.00
806.28	6327.00
806.44	6111.00
806.59	6598.00
806.74	6707.00
806.89	5944.00
807.04	6745.00
807.19	6108.00
807.34	6338.00
807.49	5855.00
807.64	6525.00
807.79	6215.00
807.94	5843.00
808.09	6386.00
808.24	6128.00
808.39	6275.00
808.54	6147.00
808.69	6623.00
808.84	6091.00
808.99	6410.00
809.14	6560.00
809.29	6618.00
809.44	6844.00
809.58	6570.00
809.73	5950.00
809.88	5973.00
810.03	6357.00
810.18	6619.00
810.33	6796.00
810.48	6669.00
810.63	6617.00
810.78	6771.00
810.93	7016.00
811.08	6791.00
811.23	6883.00
811.38	6828.00
811.53	7984.00
811.68	7588.00
811.83	7267.00
811.97	7021.00
812.12	7332.00
812.27	7150.00
812.42	6615.00
812.57	6402.00
812.72	6361.00
812.87	6617.00
813.02	5906.00
813.17	6305.00
813.31	6979.00
813.46	6268.00
813.61	6282.00
813.76	6195.00
813.91	6288.00
814.06	6586.00
814.21	6168.00
814.35	6303.00
814.50	6392.00
814.65	6368.00
814.80	5890.00
814.95	6667.00
815.10	6909.00
815.25	6413.00
815.39	5514.00
815.54	6417.00
815.69	5572.00
815.84	5802.00
815.99	6178.00
816.13	6221.00
816.28	6012.00
816.43	6805.00
816.58	6234.00
816.73	6594.00
816.87	6256.00
817.02	5968.00
817.17	6905.00
817.32	6646.00
817.47	7050.00
817.61	6633.00
817.76	6586.00
817.91	5591.00
818.06	6240.00
818.20	6177.00
818.35	6843.00
818.50	6639.00
818.65	6537.00
818.79	7071.00
818.94	6811.00
819.09	5702.00
819.24	6242.00
819.38	6780.00
819.53	6087.00
819.68	6516.00
819.83	5512.00
819.97	6205.00
820.12	6081.00
820.27	5687.00
820.41	6389.00
820.56	6316.00
820.71	6572.00
820.86	6070.00
821.00	6957.00
821.15	6386.00
821.30	6233.00
821.44	7171.00
821.59	6707.00
821.74	6047.00
821.88	6310.00
822.03	5829.00
822.18	6819.00
822.32	5877.00
822.47	6453.00
822.62	6276.00
822.76	6359.00
822.91	6126.00
823.06	6134.00
823.20	5872.00
823.35	6942.00
823.49	5897.00
823.64	6220.00
823.79	6458.00
823.93	5981.00
824.08	6431.00
824.23	6202.00
824.37	7040.00
824.52	5885.00
824.66	6314.00
824.81	6445.00
824.96	6387.00
825.10	6163.00
825.25	6512.00
825.39	6238.00
825.54	6419.00
825.69	6170.00
825.83	6561.00
825.98	6598.00
826.12	6381.00
826.27	6671.00
826.41	6664.00
826.56	6698.00
826.71	6706.00
826.85	6690.00
827.00	6637.00
827.14	6154.00
827.29	6717.00
827.43	6578.00
827.58	6838.00
827.72	7136.00
827.87	5888.00
828.01	6330.00
828.16	6097.00
828.30	6221.00
828.45	6323.00
828.59	6547.00
828.74	6553.00
828.89	5439.00
829.03	7466.00
829.18	6548.00
829.32	6649.00
829.46	6552.00
829.61	6419.00
829.75	6649.00
829.90	6850.00
830.04	6362.00
830.19	6415.00
830.33	6001.00
830.48	6292.00
830.62	5699.00
830.77	6283.00
830.91	6745.00
831.06	6387.00
831.20	6269.00
831.35	6541.00
831.49	6443.00
831.63	5875.00
831.78	6635.00
831.92	6287.00
832.07	6838.00
832.21	6608.00
832.36	6492.00
832.50	6330.00
832.64	6763.00
832.79	6273.00
832.93	6056.00
833.08	7008.00
833.22	6804.00
833.36	7119.00
833.51	6071.00
833.65	6497.00
833.80	7149.00
833.94	6177.00
834.08	6239.00
834.23	7379.00
834.37	6601.00
834.51	6467.00
834.66	6097.00
834.80	5888.00
834.95	6032.00
835.09	6523.00
835.23	6685.00
835.38	6542.00
835.52	7049.00
835.66	6045.00
835.81	6202.00
835.95	6202.00
836.09	6251.00
836.24	7060.00
836.38	6276.00
836.52	6188.00
836.67	6059.00
836.81	7391.00
836.95	6562.00
837.10	6599.00
837.24	6344.00
837.38	6239.00
837.52	6239.00
837.67	6335.00
837.81	6232.00
837.95	6453.00
838.10	6086.00
838.24	6155.00
838.38	6334.00
838.52	6654.00
838.67	6068.00
838.81	6082.00
838.95	6235.00
839.09	6327.00
839.24	6631.00
839.38	6649.00
839.52	6604.00
839.66	6538.00
839.81	6505.00
839.95	6298.00
840.09	6612.00
840.23	6126.00
840.38	6917.00
840.52	6392.00
840.66	6472.00
840.80	6699.00
840.94	6513.00
841.09	6921.00
841.23	6119.00
841.37	6558.00
841.51	7062.00
841.65	6537.00
841.80	6376.00
841.94	6347.00
842.08	6598.00
842.22	6647.00
842.36	6807.00
842.50	7449.00
842.65	7479.00
842.79	6994.00
842.93	6584.00
843.07	6212.00
843.21	6828.00
843.35	7024.00
843.50	6247.00
843.64	6280.00
843.78	5822.00
843.92	6065.00
844.06	6201.00
844.20	6100.00
844.34	6604.00
844.48	6179.00
844.63	6915.00
844.77	6720.00
844.91	6431.00
845.05	6638.00
845.19	6153.00
845.33	6829.00
845.47	7233.00
845.61	6390.00
845.75	6722.00
845.90	6514.00
846.04	6634.00
846.18	6085.00
846.32	6115.00
846.46	6051.00
846.60	6450.00
846.74	6407.00
846.88	5818.00
847.02	6079.00
847.16	6429.00
847.30	6521.00
847.44	6654.00
847.58	6128.00
847.72	7017.00
847.86	7693.00
848.00	5910.00
848.14	6266.00
848.28	6683.00
848.42	6611.00
848.56	6581.00
848.70	6343.00
848.84	6753.00
848.99	6639.00
849.13	6864.00
849.27	6934.00
849.41	5692.00
849.54	6488.00
849.68	6053.00
849.82	7003.00
849.96	6374.00
850.10	6254.00
850.24	6515.00
850.38	6524.00
850.52	5973.00
850.66	6464.00
850.80	6229.00
850.94	5950.00
851.08	6613.00
851.22	5501.00
851.36	6610.00
851.50	5343.00
851.64	3860.00
851.78	4693.00
851.92	4626.00
852.06	5851.00
852.20	5921.00
852.34	5441.00
852.48	6276.00
852.61	6190.00
852.75	5804.00
852.89	6703.00
853.03	6522.00
853.17	5956.00
853.31	6240.00
853.45	6405.00
853.59	6305.00
853.73	4760.00
853.87	5073.00
854.00	4594.00
854.14	4225.00
