Wavelength(nm)  Intensity
690.49	5867.00
690.67	5984.00
690.84	5981.00
691.02	6201.00
691.19	5797.00
691.36	5921.00
691.54	6220.00
691.71	6055.00
691.89	5686.00
692.06	5731.00
692.24	6279.00
692.41	5630.00
692.59	6414.00
692.76	6029.00
692.93	6011.00
693.11	6108.00
693.28	6057.00
693.46	6281.00
693.63	6165.00
693.80	6109.00
693.98	6292.00
694.15	6161.00
694.33	5661.00
694.50	6358.00
694.67	6408.00
694.85	6769.00
695.02	6302.00
695.20	5939.00
695.37	5697.00
695.54	6558.00
695.72	5690.00
695.89	5752.00
696.07	6139.00
696.24	6235.00
696.41	6559.00
696.59	5922.00
696.76	6488.00
696.93	6860.00
697.11	5608.00
697.28	6636.00
697.45	6594.00
697.63	6525.00
697.80	6377.00
697.97	6477.00
698.15	6118.00
698.32	6227.00
698.49	5854.00
698.67	6171.00
698.84	5680.00
699.01	5486.00
699.19	6457.00
699.36	5939.00
699.53	6917.00
699.70	5820.00
699.88	6410.00
700.05	6602.00
700.22	6505.00
700.40	6580.00
700.57	6175.00
700.74	5962.00
700.91	6120.00
701.09	6854.00
701.26	6131.00
701.43	6429.00
701.60	5853.00
701.78	6215.00
701.95	6774.00
702.12	5554.00
702.29	5654.00
702.47	5781.00
702.64	6362.00
702.81	6365.00
702.98	6019.00
703.16	5571.00
703.33	5619.00
703.50	6923.00
703.67	5841.00
703.85	6201.00
704.02	6018.00
704.19	5827.00
704.36	6525.00
704.53	6299.00
704.71	6834.00
704.88	6794.00
705.05	5953.00
705.22	5953.00
705.39	6294.00
705.56	6007.00
705.74	6251.00
705.91	6575.00
706.08	5687.00
706.25	6432.00
706.42	6067.00
706.59	6328.00
706.77	6035.00
706.94	6009.00
707.11	6226.00
707.28	6264.00
707.45	6277.00
707.62	5969.00
707.80	5689.00
707.97	6366.00
708.14	5861.00
708.31	5893.00
708.48	6008.00
708.65	5927.00
708.82	6324.00
708.99	6813.00
709.16	6101.00
709.34	6102.00
709.51	5973.00
709.68	6120.00
709.85	6511.00
710.02	5704.00
710.19	7099.00
710.36	6644.00
710.53	6069.00
710.70	5973.00
710.87	5902.00
711.04	5909.00
711.22	6059.00
711.39	6265.00
711.56	6032.00
711.73	6000.00
711.90	6095.00
712.07	6455.00
712.24	6055.00
712.41	6410.00
712.58	5940.00
712.75	6482.00
712.92	6350.00
713.09	6297.00
713.26	6047.00
713.43	6066.00
713.60	6755.00
713.77	6173.00
713.94	6601.00
714.11	6044.00
714.28	6762.00
714.45	5921.00
714.62	6031.00
714.79	5963.00
714.96	5595.00
715.13	6128.00
715.30	6722.00
715.47	5531.00
715.64	6299.00
715.81	6018.00
715.98	6190.00
716.15	5987.00
716.32	5825.00
716.49	6302.00
716.66	5770.00
716.83	6346.00
717.00	6599.00
717.17	5693.00
717.34	6181.00
717.51	6437.00
717.68	6913.00
717.85	6174.00
718.02	6305.00
718.19	5838.00
718.35	5988.00
718.52	6356.00
718.69	5733.00
718.86	6549.00
719.03	6467.00
719.20	6462.00
719.37	6236.00
719.54	6436.00
719.71	5973.00
719.88	6337.00
720.05	6353.00
720.21	5962.00
720.38	6221.00
720.55	6377.00
720.72	6168.00
720.89	6204.00
721.06	6377.00
721.23	6213.00
721.40	6563.00
721.56	5646.00
721.73	6454.00
721.90	5886.00
722.07	6022.00
722.24	6887.00
722.41	6244.00
722.58	6537.00
722.74	5672.00
722.91	5981.00
723.08	6102.00
723.25	6402.00
723.42	6657.00
723.59	6342.00
723.75	6097.00
723.92	6104.00
724.09	5745.00
724.26	6255.00
724.43	5789.00
724.59	6005.00
724.76	6531.00
724.93	7169.00
725.10	5883.00
725.27	6239.00
725.43	6154.00
725.60	6168.00
725.77	6359.00
725.94	6602.00
726.10	6253.00
726.27	6672.00
726.44	5978.00
726.61	6415.00
726.78	5955.00
726.94	5797.00
727.11	6261.00
727.28	5947.00
727.45	6917.00
727.61	6183.00
727.78	6226.00
727.95	6690.00
728.11	6526.00
728.28	6481.00
728.45	6235.00
728.62	5860.00
728.78	6473.00
728.95	6480.00
729.12	6354.00
729.29	6086.00
729.45	6034.00
729.62	6690.00
729.79	6128.00
729.95	6054.00
730.12	6553.00
730.29	6526.00
730.45	6959.00
730.62	6229.00
730.79	6877.00
730.95	6077.00
731.12	6476.00
731.29	6729.00
731.45	6077.00
731.62	6889.00
731.79	6996.00
731.95	6747.00
732.12	6622.00
732.29	6567.00
732.45	7434.00
732.62	6317.00
732.79	6663.00
732.95	6548.00
733.12	6539.00
733.28	7248.00
733.45	6629.00
733.62	7017.00
733.78	6352.00
733.95	7031.00
734.12	6777.00
734.28	6480.00
734.45	6282.00
734.61	5774.00
734.78	6493.00
734.95	6744.00
735.11	6574.00
735.28	6695.00
735.44	6760.00
735.61	6733.00
735.77	7431.00
735.94	7377.00
736.11	6757.00
736.27	6451.00
736.44	6747.00
736.60	6559.00
736.77	6426.00
736.93	6691.00
737.10	7978.00
737.26	6500.00
737.43	6555.00
737.60	6238.00
737.76	6778.00
737.93	5982.00
738.09	6555.00
738.26	6364.00
738.42	6328.00
738.59	6410.00
738.75	7091.00
738.92	6917.00
739.08	6414.00
739.25	6030.00
739.41	6409.00
739.58	6263.00
739.74	7037.00
739.91	6546.00
740.07	6740.00
740.24	6821.00
740.40	6224.00
740.57	6609.00
740.73	7390.00
740.90	5998.00
741.06	6298.00
741.23	5995.00
741.39	7157.00
741.55	6366.00
741.72	6447.00
741.88	6059.00
742.05	6613.00
742.21	6112.00
742.38	6014.00
742.54	5927.00
742.71	6109.00
742.87	6320.00
743.03	5908.00
743.20	6827.00
743.36	5816.00
743.53	6063.00
743.69	6385.00
743.86	6376.00
744.02	5737.00
744.18	5927.00
744.35	7235.00
744.51	6290.00
744.67	6345.00
744.84	5889.00
745.00	6701.00
745.17	6439.00
745.33	6857.00
745.49	6919.00
745.66	6159.00
745.82	7524.00
745.99	6081.00
746.15	6485.00
746.31	6572.00
746.48	6933.00
746.64	6358.00
746.80	6579.00
746.97	5913.00
747.13	6423.00
747.29	5507.00
747.46	5929.00
747.62	6499.00
747.78	5939.00
747.95	5975.00
748.11	6099.00
748.27	6289.00
748.44	6366.00
748.60	6428.00
748.76	6593.00
748.92	6726.00
749.09	6544.00
749.25	6333.00
749.41	5856.00
749.58	6479.00
749.74	6713.00
749.90	5866.00
750.07	5868.00
750.23	6139.00
750.39	5926.00
750.55	6909.00
750.72	5976.00
750.88	6290.00
751.04	6227.00
751.20	6891.00
751.37	5519.00
751.53	6827.00
751.69	5972.00
751.85	6265.00
752.02	6114.00
752.18	6283.00
752.34	7162.00
752.50	6673.00
752.67	6420.00
752.83	5826.00
752.99	6355.00
753.15	6690.00
753.31	6554.00
753.48	6614.00
753.64	5828.00
753.80	6146.00
753.96	6176.00
754.12	6037.00
754.29	6217.00
754.45	6566.00
754.61	6307.00
754.77	5572.00
754.93	5453.00
755.09	6151.00
755.26	6171.00
755.42	6577.00
755.58	6494.00
755.74	6464.00
755.90	6256.00
756.06	6095.00
756.23	6209.00
756.39	6159.00
756.55	5595.00
756.71	6137.00
756.87	6193.00
757.03	6137.00
757.19	5733.00
757.36	6125.00
757.52	6443.00
757.68	6306.00
757.84	6750.00
758.00	6376.00
758.16	6675.00
758.32	5687.00
758.48	6267.00
758.64	5676.00
758.80	6060.00
758.97	6403.00
759.13	6005.00
759.29	5776.00
759.45	6113.00
759.61	6084.00
759.77	5888.00
759.93	6039.00
760.09	6662.00
760.25	6292.00
760.41	5804.00
760.57	8495.00
760.73	6013.00
760.89	6233.00
761.05	5734.00
761.21	6427.00
761.38	5741.00
761.54	6273.00
761.70	6955.00
761.86	6482.00
762.02	6253.00
762.18	6216.00
762.34	6518.00
762.50	6431.00
762.66	6268.00
762.82	6177.00
762.98	5513.00
763.14	6601.00
763.30	6667.00
763.46	6425.00
763.62	7467.00
763.78	6715.00
763.94	5883.00
764.10	5943.00
764.26	5972.00
764.42	6398.00
764.58	6862.00
764.74	5957.00
764.90	6294.00
765.05	6260.00
765.21	5577.00
765.37	6456.00
765.53	7077.00
765.69	5881.00
765.85	6518.00
766.01	5968.00
766.17	5713.00
766.33	6201.00
766.49	6189.00
766.65	6574.00
766.81	6372.00
766.97	5975.00
767.13	5832.00
767.29	6372.00
767.44	5834.00
767.60	6030.00
767.76	6344.00
767.92	6271.00
768.08	6348.00
768.24	5717.00
768.40	6194.00
768.56	6072.00
768.72	5993.00
768.88	6818.00
769.03	6423.00
769.19	5441.00
769.35	6274.00
769.51	6484.00
769.67	6170.00
769.83	6616.00
769.99	6067.00
770.14	5745.00
770.30	5614.00
770.46	6358.00
770.62	6604.00
770.78	6266.00
770.94	6394.00
771.09	5782.00
771.25	5806.00
771.41	6204.00
771.57	6814.00
771.73	6480.00
771.89	6878.00
772.04	6330.00
772.20	6064.00
772.36	6243.00
772.52	6543.00
772.68	6468.00
772.83	6169.00
772.99	6049.00
773.15	6552.00
773.31	6108.00
773.46	6240.00
773.62	6305.00
773.78	5742.00
773.94	6106.00
774.10	6641.00
774.25	6359.00
774.41	6132.00
774.57	6329.00
774.73	6288.00
774.88	5795.00
775.04	5980.00
775.20	6160.00
775.36	5292.00
775.51	5466.00
775.67	6074.00
775.83	6475.00
775.98	6127.00
776.14	6960.00
776.30	6574.00
776.46	6422.00
776.61	6594.00
776.77	6343.00
776.93	6545.00
777.08	5752.00
777.24	6041.00
777.40	6302.00
777.56	6177.00
777.71	6568.00
777.87	6765.00
778.03	5319.00
778.18	6819.00
778.34	5810.00
778.50	6199.00
778.65	6391.00
778.81	6428.00
778.97	6166.00
779.12	6387.00
779.28	5854.00
779.44	6463.00
779.59	6473.00
779.75	6357.00
779.90	6192.00
780.06	6842.00
780.22	6994.00
780.37	6921.00
780.53	6468.00
780.69	6515.00
780.84	5913.00
781.00	7296.00
781.15	6556.00
781.31	5803.00
781.47	6835.00
781.62	6061.00
781.78	6547.00
781.93	5794.00
782.09	6852.00
782.25	6180.00
782.40	5877.00
782.56	6129.00
782.71	6245.00
782.87	6463.00
783.02	6306.00
783.18	6449.00
783.34	6933.00
783.49	6361.00
783.65	6950.00
783.80	6557.00
783.96	5971.00
784.11	6319.00
784.27	6557.00
784.42	6458.00
784.58	7239.00
784.73	5889.00
784.89	6330.00
785.05	6252.00
785.20	6878.00
785.36	6002.00
785.51	6514.00
785.67	6327.00
785.82	6321.00
785.98	7357.00
786.13	6401.00
786.29	5972.00
786.44	6789.00
786.60	5979.00
786.75	6477.00
786.91	6614.00
787.06	6021.00
787.21	6307.00
787.37	6635.00
787.52	6142.00
787.68	6739.00
787.83	6301.00
787.99	6312.00
788.14	6989.00
788.30	5963.00
788.45	6589.00
788.61	6492.00
788.76	6739.00
788.91	6824.00
789.07	6292.00
789.22	6731.00
789.38	6526.00
789.53	6522.00
789.69	6637.00
789.84	6983.00
789.99	6181.00
790.15	6042.00
790.30	6711.00
790.46	6866.00
790.61	6528.00
790.76	6538.00
790.92	6608.00
791.07	6242.00
791.23	6286.00
791.38	6350.00
791.53	6708.00
791.69	6220.00
791.84	7464.00
791.99	6557.00
792.15	5984.00
792.30	6706.00
792.46	7329.00
792.61	6460.00
792.76	6565.00
792.92	6399.00
793.07	6604.00
793.22	6465.00
793.38	6193.00
793.53	7410.00
793.68	6859.00
793.84	6352.00
793.99	6393.00
794.14	6839.00
794.30	6197.00
794.45	6273.00
794.60	7198.00
794.75	6559.00
794.91	6978.00
795.06	6332.00
795.21	7044.00
795.37	6251.00
795.52	6929.00
795.67	6289.00
795.83	7009.00
795.98	6647.00
796.13	6672.00
796.28	6774.00
796.44	6754.00
796.59	6042.00
796.74	6041.00
796.89	7248.00
797.05	6112.00
797.20	6025.00
797.35	6021.00
797.50	6509.00
797.66	6993.00
797.81	6385.00
797.96	6930.00
798.11	6306.00
798.27	6525.00
798.42	5316.00
798.57	14702.00
798.72	7007.00
798.87	6259.00
799.03	6483.00
799.18	6579.00
799.33	6323.00
799.48	6315.00
799.63	6763.00
799.79	6286.00
799.94	5933.00
800.09	6518.00
800.24	6201.00
800.39	6905.00
800.54	7112.00
800.70	6562.00
800.85	6368.00
801.00	6932.00
801.15	6129.00
801.30	6322.00
801.45	6758.00
801.61	6184.00
801.76	6549.00
801.91	6658.00
802.06	6596.00
802.21	6747.00
802.36	5654.00
802.51	6801.00
802.67	6552.00
802.82	6503.00
802.97	6443.00
803.12	6872.00
803.27	6478.00
803.42	6443.00
803.57	6432.00
803.72	6006.00
803.87	5922.00
804.02	6868.00
804.18	6346.00
804.33	6518.00
804.48	7334.00
804.63	6214.00
804.78	6254.00
804.93	5997.00
805.08	6200.00
805.23	6229.00
805.38	6082.00
805.53	6538.00
805.68	5908.00
805.83	5764.00
805.98	6009.00
806.13	5734.00
806.28	6338.00
806.44	6052.00
806.59	6577.00
806.74	6750.00
806.89	6015.00
807.04	6745.00
807.19	6052.00
807.34	6339.00
807.49	5858.00
807.64	6573.00
807.79	6174.00
807.94	5929.00
808.09	6345.00
808.24	6151.00
808.39	6256.00
808.54	6313.00
808.69	6625.00
808.84	6027.00
808.99	6454.00
809.14	6577.00
809.29	6543.00
809.44	6874.00
809.58	6564.00
809.73	5951.00
809.88	5975.00
810.03	6314.00
810.18	6631.00
810.33	6811.00
810.48	6679.00
810.63	6608.00
810.78	6757.00
810.93	7129.00
811.08	6831.00
811.23	6919.00
811.38	6875.00
811.53	8185.00
811.68	7770.00
811.83	7539.00
811.97	7279.00
812.12	7374.00
812.27	7110.00
812.42	6615.00
812.57	6402.00
812.72	6222.00
812.87	6563.00
813.02	5940.00
813.17	6255.00
813.31	7075.00
813.46	6261.00
813.61	6371.00
813.76	6233.00
813.91	6439.00
814.06	6553.00
814.21	6179.00
814.35	6339.00
814.50	6541.00
814.65	6356.00
814.80	5941.00
814.95	6655.00
815.10	6889.00
815.25	6360.00
815.39	5460.00
815.54	6443.00
815.69	5642.00
815.84	5777.00
815.99	6196.00
816.13	6247.00
816.28	5982.00
816.43	6800.00
816.58	6390.00
816.73	6752.00
816.87	6245.00
817.02	5971.00
817.17	6886.00
817.32	6653.00
817.47	7070.00
817.61	6655.00
817.76	6425.00
817.91	5627.00
818.06	6256.00
818.20	6153.00
818.35	6807.00
818.50	6644.00
818.65	6529.00
818.79	7152.00
818.94	6759.00
819.09	5721.00
819.24	6272.00
819.38	6649.00
819.53	6170.00
819.68	6488.00
819.83	5473.00
819.97	6192.00
820.12	6072.00
820.27	5689.00
820.41	6390.00
820.56	6309.00
820.71	6520.00
820.86	6091.00
821.00	7128.00
821.15	6394.00
821.30	6204.00
821.44	7207.00
821.59	6675.00
821.74	6095.00
821.88	6292.00
822.03	5881.00
822.18	6852.00
822.32	5895.00
822.47	6327.00
822.62	6272.00
822.76	6380.00
822.91	6101.00
823.06	6073.00
823.20	5826.00
823.35	6934.00
823.49	5939.00
823.64	6249.00
823.79	6458.00
823.93	5917.00
824.08	6445.00
824.23	6201.00
824.37	7029.00
824.52	5953.00
824.66	6338.00
824.81	6451.00
824.96	6351.00
825.10	6128.00
825.25	6485.00
825.39	6246.00
825.54	6426.00
825.69	6100.00
825.83	6348.00
825.98	6643.00
826.12	6395.00
826.27	6519.00
826.41	6710.00
826.56	6636.00
826.71	6693.00
826.85	6817.00
827.00	6709.00
827.14	6208.00
827.29	6698.00
827.43	6576.00
827.58	6819.00
827.72	7141.00
827.87	6030.00
828.01	6243.00
828.16	6123.00
828.30	6164.00
828.45	6316.00
828.59	6536.00
828.74	6527.00
828.89	5472.00
829.03	7704.00
829.18	6542.00
829.32	6670.00
829.46	6556.00
829.61	6431.00
829.75	6780.00
829.90	6777.00
830.04	6353.00
830.19	6434.00
830.33	6034.00
830.48	6277.00
830.62	5705.00
830.77	6301.00
830.91	6762.00
831.06	6371.00
831.20	6348.00
831.35	6503.00
831.49	6294.00
831.63	5884.00
831.78	6720.00
831.92	6310.00
832.07	6841.00
832.21	6675.00
832.36	6544.00
832.50	6235.00
832.64	6848.00
832.79	6340.00
832.93	5987.00
833.08	6965.00
833.22	6709.00
833.36	7099.00
833.51	6047.00
833.65	6491.00
833.80	7293.00
833.94	6221.00
834.08	6149.00
834.23	7397.00
834.37	6576.00
834.51	6433.00
834.66	6093.00
834.80	5955.00
834.95	6050.00
835.09	6523.00
835.23	6677.00
835.38	6527.00
835.52	7040.00
835.66	6062.00
835.81	6153.00
835.95	6190.00
836.09	6271.00
836.24	7025.00
836.38	6289.00
836.52	6182.00
836.67	5994.00
836.81	7411.00
836.95	6575.00
837.10	6758.00
837.24	6412.00
837.38	6304.00
837.52	6211.00
837.67	6325.00
837.81	6200.00
837.95	6469.00
838.10	6112.00
838.24	6118.00
838.38	6345.00
838.52	6653.00
838.67	6020.00
838.81	6052.00
838.95	6233.00
839.09	6258.00
839.24	6530.00
839.38	6703.00
839.52	6686.00
839.66	6606.00
839.81	6545.00
839.95	6321.00
840.09	6579.00
840.23	6394.00
840.38	6989.00
840.52	6411.00
840.66	6652.00
840.80	6729.00
840.94	6529.00
841.09	6929.00
841.23	6104.00
841.37	6599.00
841.51	7028.00
841.65	6613.00
841.80	6411.00
841.94	6340.00
842.08	6563.00
842.22	6635.00
842.36	6985.00
842.50	7574.00
842.65	7513.00
842.79	7092.00
842.93	6611.00
843.07	6239.00
843.21	6875.00
843.35	7063.00
843.50	6301.00
843.64	6211.00
843.78	5760.00
843.92	6094.00
844.06	6227.00
844.20	6108.00
844.34	6534.00
844.48	6074.00
844.63	6935.00
844.77	6724.00
844.91	6442.00
845.05	6646.00
845.19	6151.00
845.33	6791.00
845.47	7295.00
845.61	6369.00
845.75	6763.00
845.90	6572.00
846.04	6617.00
846.18	6048.00
846.32	6127.00
846.46	6068.00
846.60	6485.00
846.74	6438.00
846.88	5849.00
847.02	6063.00
847.16	6458.00
847.30	6548.00
847.44	6819.00
847.58	6035.00
847.72	7096.00
847.86	7648.00
848.00	5853.00
848.14	6375.00
848.28	6651.00
848.42	6631.00
848.56	6577.00
848.70	6345.00
848.84	6730.00
848.99	6729.00
849.13	6835.00
849.27	6986.00
849.41	5664.00
849.54	6464.00
849.68	6205.00
849.82	7084.00
849.96	6429.00
850.10	6126.00
850.24	6511.00
850.38	6535.00
850.52	5934.00
850.66	6488.00
850.80	6287.00
850.94	6008.00
851.08	6608.00
851.22	5606.00
851.36	6580.00
851.50	5377.00
851.64	3850.00
851.78	4672.00
851.92	4571.00
852.06	5863.00
852.20	5921.00
852.34	5519.00
852.48	5730.00
852.61	6243.00
852.75	5791.00
852.89	6718.00
853.03	6542.00
853.17	5949.00
853.31	6221.00
853.45	6423.00
853.59	6329.00
853.73	4748.00
853.87	5076.00
854.00	4605.00
854.14	4229.00
