Generated file C:/Users/didvk/OneDrive - University of Florida/UF_Isaiah_06-16-2020-Tue/Analysis/Re0.1Mo0.9B2/Re0.1Mo0.9B2_HPXRD_run2_300_20220710 - Copy/mask&dat&fxye_4position/11_ReMoB2_52p0GPa_520psi_P1_C4_D1w_083.fxye using DIOPTAS
# == pyFAI calibration ==
# Distance Sample to Detector: 0.2103851508954585 m
# PONI: 8.889e-02, 8.665e-02 m
# Rotations: 0.008634 -0.000915 0.000000 rad
# 
# == Fit2d calibration ==
# Distance Sample-beamCenter: 210.393 mm
# Center: x=493.236, y=515.685 pix
# Tilt: 0.497 deg  TiltPlanRot: -173.953 deg
# 
# Detector Detector	 Spline= None	 PixelSize= 1.720e-04, 1.720e-04 m
#    Detector has a mask: False 
#    Detector has a dark current: False 
#    detector has a flat field: False 
# 
# Wavelength: 4.133e-11 m
# Mask applied: None
# Dark current applied: None
# Flat field applied: None
# Polarization factor: None
# Normalization factor: None
BANK	1	1129	1129 CONS	282.731	1.89862 0.4133 0.0 FXYE
	282.731	0.410008	0.640319
	284.629	0.330507	0.574898
	286.528	0.7031	0.83851
	288.427	1.03358	1.01665
	290.325	1.14771	1.07131
	292.224	1.2625	1.12361
	294.122	0.910184	0.954035
	296.021	0.622728	0.789131
	297.92	1.11339	1.05517
	299.818	1.38297	1.176
	301.717	2.06692	1.43768
	303.616	1.70434	1.3055
	305.514	1.15953	1.07681
	307.413	0.749963	0.866004
	309.311	1.0306	1.01518
	311.21	1.52107	1.23331
	313.109	1.94455	1.39447
	315.007	1.75839	1.32604
	316.906	1.32698	1.15195
	318.805	1.29141	1.1364
	320.703	1.59342	1.26231
	322.602	1.63002	1.27672
	324.5	2.08049	1.44239
	326.399	2.32003	1.52316
	328.298	2.92973	1.71165
	330.196	2.88446	1.69837
	332.095	3.18106	1.78355
	333.993	3.41721	1.84857
	335.892	3.92528	1.98123
	337.791	4.39808	2.09716
	339.689	6.15194	2.48031
	341.588	8.21694	2.86652
	343.487	11.645	3.41248
	345.385	16.5243	4.06501
	347.284	24.3963	4.93926
	349.182	32.1537	5.67042
	351.081	37.7305	6.14251
	352.98	37.6325	6.13453
	354.878	31.1696	5.58297
	356.777	22.2711	4.71922
	358.676	14.7026	3.8344
	360.574	9.53988	3.08867
	362.473	6.31758	2.51348
	364.371	4.2633	2.06478
	366.27	3.37633	1.83748
	368.169	3.27442	1.80954
	370.067	2.73423	1.65355
	371.966	2.21731	1.48906
	373.864	1.49318	1.22196
	375.763	1.09683	1.0473
	377.662	1.38555	1.17709
	379.56	1.74627	1.32146
	381.459	1.87567	1.36955
	383.358	1.14432	1.06973
	385.256	0.419408	0.647617
	387.155	0.413451	0.643002
	389.053	0.156667	0.395811
	390.952	-0.061994	0.248986
	392.851	0.0591407	0.243189
	394.749	0.847634	0.92067
	396.648	1.53964	1.24082
	398.547	1.47105	1.21287
	400.445	1.27683	1.12997
	402.344	0.468787	0.68468
	404.242	0.0695828	0.263785
	406.141	0.0624669	0.249934
	408.04	0.817411	0.904108
	409.938	1.24196	1.11443
	411.837	1.08561	1.04193
	413.735	0.710859	0.843124
	415.634	0.971455	0.985624
	417.533	1.16651	1.08005
	419.431	0.911415	0.95468
	421.33	0.620106	0.787468
	423.229	-0.151494	0.389223
	425.127	0.0916236	0.302694
	427.026	0.269677	0.519304
	428.924	0.981412	0.990663
	430.823	1.16171	1.07783
	432.722	1.36255	1.16728
	434.62	0.82147	0.90635
	436.519	0.859583	0.927137
	438.418	0.727991	0.853224
	440.316	0.758124	0.870703
	442.215	0.884941	0.940713
	444.113	0.995149	0.997572
	446.012	1.18791	1.08991
	447.911	0.82901	0.9105
	449.809	0.739905	0.860178
	451.708	0.305495	0.552716
	453.606	0.0551542	0.234849
	455.505	-0.130566	0.361339
	457.404	0.0964966	0.310639
	459.302	0.34851	0.590347
	461.201	0.879632	0.937887
	463.1	0.864953	0.930028
	464.998	0.876042	0.935971
	466.897	0.292075	0.540439
	468.795	0.500984	0.707802
	470.694	0.477836	0.691257
	472.593	0.74806	0.864905
	474.491	0.723624	0.850661
	476.39	0.45749	0.67638
	478.289	0.438359	0.662087
	480.187	0.526657	0.725711
	482.086	0.303385	0.550804
	483.984	0.286732	0.535473
	485.883	0.215681	0.464415
	487.782	0.113565	0.336995
	489.68	0.592702	0.769871
	491.579	1.04032	1.01996
	493.478	1.12338	1.0599
	495.376	0.954236	0.97685
	497.275	0.400606	0.632934
	499.173	0.721867	0.849627
	501.072	0.64656	0.80409
	502.971	0.451762	0.672132
	504.869	0.271093	0.520665
	506.768	0.127518	0.357097
	508.666	0.138744	0.372484
	510.565	0.500412	0.707398
	512.464	0.174253	0.417436
	514.362	0.291925	0.540301
	516.261	0.252669	0.502662
	518.16	0.20251	0.450011
	520.058	0.135182	0.36767
	521.957	0.508794	0.713298
	523.855	0.762275	0.873084
	525.754	1.30438	1.1421
	527.653	1.79826	1.34099
	529.551	1.79125	1.33838
	531.45	1.96011	1.40004
	533.349	1.64026	1.28073
	535.247	1.46564	1.21064
	537.146	1.29001	1.13579
	539.044	0.256317	0.506278
	540.943	-0.275447	0.52483
	542.842	-0.423431	0.650716
	544.74	0.397806	0.630719
	546.639	0.804731	0.897068
	548.537	0.890418	0.943619
	550.436	0.443326	0.665827
	552.335	0.279605	0.528776
	554.233	0.768807	0.876817
	556.132	1.36142	1.1668
	558.031	1.16002	1.07704
	559.929	1.23297	1.11039
	561.828	1.62852	1.27613
	563.726	1.98165	1.40771
	565.625	2.30589	1.51852
	567.524	1.89584	1.37689
	569.422	1.28967	1.13564
	571.321	1.76551	1.32872
	573.22	1.70672	1.30642
	575.118	1.43824	1.19927
	577.017	1.22806	1.10818
	578.915	0.867285	0.931281
	580.814	0.929195	0.963947
	582.713	1.32354	1.15045
	584.611	1.06519	1.03208
	586.51	0.772946	0.879174
	588.408	0.250184	0.500184
	590.307	-0.0892729	0.298786
	592.206	-0.081629	0.285708
	594.104	-0.0385051	0.196227
	596.003	0.560187	0.748456
	597.902	0.632495	0.795295
	599.8	0.936379	0.967667
	601.699	0.318768	0.564596
	603.597	0.555839	0.745546
	605.496	0.293207	0.541486
	607.395	0.522716	0.722991
	609.293	0.438761	0.662391
	611.192	0.0739615	0.271959
	613.091	-0.0831065	0.288282
	614.989	0.0432167	0.207886
	616.888	0.0821066	0.286543
	618.786	0.0632592	0.251514
	620.685	-0.01882	0.137186
	622.584	-0.37165	0.609631
	624.482	-0.2072	0.455192
	626.381	-0.193558	0.439952
	628.279	-0.108154	0.328868
	630.178	0.626887	0.791762
	632.077	1.08578	1.04201
	633.975	1.69856	1.30329
	635.874	1.63554	1.27888
	637.773	1.91161	1.38261
	639.671	2.75039	1.65843
	641.57	3.2143	1.79285
	643.468	3.66429	1.91423
	645.367	3.86306	1.96547
	647.266	3.7403	1.93399
	649.164	3.77574	1.94313
	651.063	3.75632	1.93812
	652.962	3.89164	1.97273
	654.86	3.99372	1.99843
	656.759	3.86307	1.96547
	658.657	4.18688	2.04619
	660.556	4.86163	2.20491
	662.455	5.67327	2.38186
	664.353	7.10478	2.66548
	666.252	8.94634	2.99104
	668.15	12.7977	3.57739
	670.049	17.2757	4.1564
	671.948	22.7035	4.76482
	673.846	26.934	5.1898
	675.745	30.9051	5.55923
	677.644	33.2714	5.76814
	679.542	34.834	5.90203
	681.441	34.6525	5.88664
	683.339	34.2446	5.85189
	685.238	34.417	5.8666
	687.137	36.1989	6.01655
	689.035	41.1209	6.41256
	690.934	49.0814	7.00581
	692.833	62.5928	7.91156
	694.731	82.6814	9.09293
	696.63	110.001	10.4881
	698.528	144.047	12.0019
	700.427	182.718	13.5173
	702.326	216.379	14.7098
	704.224	233.895	15.2936
	706.123	230.713	15.1892
	708.021	208.061	14.4243
	709.92	173.665	13.1782
	711.819	137.155	11.7113
	713.717	102.337	10.1162
	715.616	75.9478	8.7148
	717.515	55.7789	7.46852
	719.413	40.4244	6.35802
	721.312	30.4429	5.51751
	723.21	22.9047	4.78588
	725.109	17.6249	4.19821
	727.008	14.0793	3.75224
	728.906	11.5764	3.40241
	730.805	9.14592	3.02422
	732.704	7.64036	2.76412
	734.602	6.91546	2.62973
	736.501	5.81535	2.4115
	738.399	4.87798	2.20861
	740.298	3.75479	1.93773
	742.197	3.75157	1.9369
	744.095	3.34952	1.83017
	745.994	3.27742	1.81036
	747.892	2.75308	1.65924
	749.791	2.82747	1.68151
	751.69	2.39134	1.54639
	753.588	1.85568	1.36223
	755.487	1.4383	1.19929
	757.386	1.25907	1.12208
	759.284	0.89556	0.94634
	761.183	0.307644	0.554657
	763.081	0.0239451	0.154742
	764.98	-0.0569869	0.238719
	766.879	0.248764	0.498762
	768.777	0.59886	0.77386
	770.676	0.91821	0.958233
	772.575	0.861294	0.928059
	774.473	0.679302	0.824198
	776.372	0.88483	0.940654
	778.27	0.884202	0.94032
	780.169	0.887623	0.942137
	782.068	0.946203	0.972729
	783.966	0.872623	0.934143
	785.865	0.853221	0.923699
	787.764	0.660446	0.812678
	789.662	0.415155	0.644325
	791.561	0.372811	0.610583
	793.459	-0.072492	0.269243
	795.358	-0.212531	0.461011
	797.257	-0.085781	0.292884
	799.155	0.322813	0.568166
	801.054	0.385719	0.621063
	802.952	0.143	0.378154
	804.851	-0.17034	0.412722
	806.75	0.231389	0.481029
	808.648	0.42076	0.648661
	810.547	0.206799	0.454752
	812.446	0.066634	0.258136
	814.344	-0.0272363	0.165034
	816.243	-0.248484	0.498482
	818.141	-0.102562	0.320253
	820.04	-0.156457	0.395547
	821.939	0.0407782	0.201936
	823.837	0.0809057	0.284439
	825.736	-0.0824287	0.287104
	827.635	-0.121653	0.348788
	829.533	0.0207961	0.144209
	831.432	0.581942	0.762851
	833.33	0.518322	0.719946
	835.229	0.493471	0.702475
	837.128	0.00368305	0.0606881
	839.026	0.0203399	0.142618
	840.925	-0.142469	0.377451
	842.823	0.42862	0.654691
	844.722	0.831476	0.911853
	846.621	1.21364	1.10165
	848.519	1.24326	1.11501
	850.418	1.22713	1.10776
	852.317	1.42942	1.19558
	854.215	1.31393	1.14627
	856.114	1.18687	1.08943
	858.012	0.942521	0.970835
	859.911	1.09565	1.04673
	861.81	1.00814	1.00406
	863.708	0.794286	0.891227
	865.607	0.369528	0.607888
	867.506	0.124559	0.35293
	869.404	0.00835397	0.0914
	871.303	0.0281824	0.167876
	873.201	0.133637	0.365564
	875.1	0.30932	0.556165
	876.999	0.0720364	0.268396
	878.897	-0.0456629	0.213689
	880.796	-0.452465	0.672655
	882.694	-0.377827	0.614676
	884.593	-0.217306	0.466161
	886.492	-0.0967121	0.310986
	888.39	-0.408423	0.639079
	890.289	-0.751308	0.86678
	892.188	-0.567484	0.753316
	894.086	-0.133756	0.365726
	895.985	0.290007	0.538523
	897.883	0.728941	0.85378
	899.782	1.4306	1.19608
	901.681	2.59431	1.61069
	903.579	3.9548	1.98867
	905.478	4.79425	2.18958
	907.377	5.89573	2.42811
	909.275	8.23371	2.86944
	911.174	12.3891	3.51981
	913.072	18.1145	4.25611
	914.971	25.1811	5.01808
	916.87	34.6087	5.88291
	918.768	46.894	6.84792
	920.667	61.5494	7.84534
	922.565	77.4681	8.8016
	924.464	96.2198	9.80917
	926.363	120.489	10.9768
	928.261	148.288	12.1774
	930.16	181.095	13.4571
	932.059	215.324	14.6739
	933.957	249.289	15.7889
	935.856	276.84	16.6385
	937.754	306.163	17.4975
	939.653	330.513	18.18
	941.552	352.483	18.7745
	943.45	379.013	19.4683
	945.349	420.156	20.4977
	947.248	497.411	22.3027
	949.146	591.553	24.3219
	951.045	712.613	26.6948
	952.943	829.897	28.8079
	954.842	933.934	30.5603
	956.741	1015.72	31.8704
	958.639	1062.57	32.5971
	960.538	1073.25	32.7605
	962.436	1070.18	32.7136
	964.335	1049.66	32.3984
	966.234	1023.31	31.9892
	968.132	947.842	30.787
	970.031	858.919	29.3073
	971.93	747.028	27.3318
	973.828	640.187	25.3019
	975.727	539.49	23.2269
	977.625	446.01	21.1189
	979.524	364.711	19.0974
	981.423	295.375	17.1865
	983.321	239.392	15.4723
	985.22	192.888	13.8884
	987.119	153.772	12.4005
	989.017	121.474	11.0215
	990.916	96.5271	9.82482
	992.814	77.0586	8.7783
	994.713	61.6722	7.85317
	996.612	48.9161	6.994
	998.51	38.3211	6.1904
	1000.41	30.4691	5.51988
	1002.31	23.2939	4.82638
	1004.21	17.0459	4.12867
	1006.1	12.3623	3.516
	1008	8.93674	2.98944
	1009.9	7.41988	2.72395
	1011.8	5.58179	2.36258
	1013.7	4.15606	2.03864
	1015.6	2.84732	1.6874
	1017.5	1.77981	1.3341
	1019.4	1.43962	1.19984
	1021.29	1.1903	1.09101
	1023.19	0.800562	0.894741
	1025.09	-0.0772104	0.277868
	1026.99	-1.2931	1.13715
	1028.89	-1.70675	1.30643
	1030.79	-1.60376	1.26639
	1032.69	-1.37955	1.17454
	1034.58	-1.19135	1.09149
	1036.48	-1.52933	1.23666
	1038.38	-2.02669	1.42362
	1040.28	-2.27909	1.50967
	1042.18	-2.14443	1.46439
	1044.08	-0.924208	0.961357
	1045.98	0.426727	0.653244
	1047.87	1.12169	1.0591
	1049.77	2.61332	1.61658
	1051.67	4.96493	2.22821
	1053.57	7.67696	2.77073
	1055.47	10.0609	3.1719
	1057.37	11.8666	3.44479
	1059.27	13.5412	3.67984
	1061.16	14.7361	3.83877
	1063.06	16.3869	4.04807
	1064.96	17.9827	4.2406
	1066.86	20.6924	4.54889
	1068.76	23.4485	4.84237
	1070.66	26.7788	5.17483
	1072.56	30.4523	5.51836
	1074.46	34.7648	5.89617
	1076.35	39.0315	6.24752
	1078.25	43.7158	6.61179
	1080.15	47.8965	6.92073
	1082.05	52.3167	7.23303
	1083.95	57.4844	7.58185
	1085.85	62.0156	7.875
	1087.75	66.4121	8.14936
	1089.64	69.9577	8.36407
	1091.54	74.3865	8.62476
	1093.44	77.9127	8.82682
	1095.34	82.1946	9.06612
	1097.24	87.2151	9.3389
	1099.14	90.7373	9.52561
	1101.04	96.4411	9.82044
	1102.93	100.366	10.0183
	1104.83	104.68	10.2313
	1106.73	108.505	10.4166
	1108.63	108.837	10.4325
	1110.53	110.152	10.4953
	1112.43	108.508	10.4167
	1114.33	105.469	10.2698
	1116.22	100.412	10.0206
	1118.12	94.843	9.73874
	1120.02	88.4101	9.40266
	1121.92	84.37	9.18531
	1123.82	82.1322	9.06268
	1125.72	82.1985	9.06634
	1127.62	85.3722	9.23971
	1129.51	88.304	9.39702
	1131.41	92.5473	9.62015
	1133.31	93.9675	9.69368
	1135.21	94.2519	9.70834
	1137.11	92.2101	9.60261
	1139.01	86.489	9.29995
	1140.91	79.47	8.9146
	1142.81	69.471	8.33493
	1144.7	58.843	7.67092
	1146.6	46.7817	6.83972
	1148.5	36.6667	6.0553
	1150.4	27.8103	5.27355
	1152.3	22.4558	4.73875
	1154.2	18.2977	4.27758
	1156.1	14.8391	3.85215
	1157.99	11.8077	3.43623
	1159.89	9.41083	3.06771
	1161.79	7.50395	2.73933
	1163.69	5.35218	2.31348
	1165.59	3.72005	1.92874
	1167.49	2.16814	1.47246
	1169.39	1.05848	1.02882
	1171.28	0.226367	0.47578
	1173.18	-1.04969	1.02454
	1175.08	-1.30072	1.14049
	1176.98	-1.24761	1.11696
	1178.88	-0.563196	0.750464
	1180.78	-0.196342	0.443105
	1182.68	0.0641992	0.253376
	1184.57	1.04076	1.02018
	1186.47	1.76895	1.33002
	1188.37	3.227	1.79639
	1190.27	3.75611	1.93807
	1192.17	4.99536	2.23503
	1194.07	5.87623	2.42409
	1195.97	6.88196	2.62335
	1197.87	8.61739	2.93554
	1199.76	9.80457	3.13122
	1201.66	11.9788	3.46103
	1203.56	14.1459	3.7611
	1205.46	18.2164	4.26806
	1207.36	24.3289	4.93243
	1209.26	29.9187	5.4698
	1211.16	40.7293	6.38195
	1213.05	48.9643	6.99745
	1214.95	61.8193	7.86253
	1216.85	70.5953	8.4021
	1218.75	77.7658	8.81849
	1220.65	75.982	8.71677
	1222.55	71.9166	8.48037
	1224.45	61.8138	7.86218
	1226.34	50.4768	7.1047
	1228.24	39.567	6.29023
	1230.14	29.9467	5.47236
	1232.04	24.1922	4.91856
	1233.94	20.2715	4.50239
	1235.84	18.0382	4.24714
	1237.74	17.9153	4.23265
	1239.63	17.2113	4.14865
	1241.53	17.7831	4.217
	1243.43	18.5993	4.31269
	1245.33	20.5736	4.53582
	1247.23	22.4126	4.73419
	1249.13	24.795	4.97946
	1251.03	28.2976	5.31954
	1252.93	33.0982	5.7531
	1254.82	39.2786	6.26726
	1256.72	46.554	6.82305
	1258.62	55.0796	7.42156
	1260.52	65.5736	8.09776
	1262.42	78.1675	8.84124
	1264.32	91.4683	9.56391
	1266.22	102.404	10.1195
	1268.11	112.002	10.5831
	1270.01	117.623	10.8454
	1271.91	121.244	11.0111
	1273.81	121.917	11.0416
	1275.71	120.705	10.9866
	1277.61	118.751	10.8973
	1279.51	115.599	10.7517
	1281.4	112.386	10.6012
	1283.3	109.471	10.4628
	1285.2	104.989	10.2464
	1287.1	103.906	10.1934
	1289	101.423	10.0709
	1290.9	100.789	10.0394
	1292.8	100.636	10.0317
	1294.69	99.579	9.97893
	1296.59	102.927	10.1453
	1298.49	101.942	10.0966
	1300.39	106.017	10.2964
	1302.29	107.54	10.3702
	1304.19	109.455	10.4621
	1306.09	112.036	10.5847
	1307.99	112.623	10.6124
	1309.88	114.878	10.7181
	1311.78	114.425	10.697
	1313.68	114.664	10.7081
	1315.58	111.247	10.5474
	1317.48	109.15	10.4475
	1319.38	105.822	10.287
	1321.28	102.261	10.1124
	1323.17	99.652	9.98258
	1325.07	93.4704	9.66801
	1326.97	90.6347	9.52023
	1328.87	85.1583	9.22812
	1330.77	80.9116	8.99509
	1332.67	74.9313	8.65629
	1334.57	69.6653	8.34657
	1336.46	64.606	8.03778
	1338.36	59.947	7.74255
	1340.26	56.3813	7.50875
	1342.16	53.0965	7.28673
	1344.06	51.3364	7.16494
	1345.96	50.2597	7.08941
	1347.86	50.4821	7.10507
	1349.75	50.285	7.09119
	1351.65	50.2946	7.09187
	1353.55	49.6054	7.04311
	1355.45	47.3468	6.8809
	1357.35	44.0235	6.63502
	1359.25	39.892	6.31601
	1361.15	34.8529	5.90363
	1363.05	28.2794	5.31784
	1364.94	22.0854	4.69951
	1366.84	16.6135	4.07597
	1368.74	11.5168	3.39364
	1370.64	6.87639	2.62229
	1372.54	2.68298	1.63798
	1374.44	0.218158	0.467074
	1376.34	-1.26649	1.12539
	1378.23	-1.98147	1.40765
	1380.13	-2.37093	1.53978
	1382.03	-2.18074	1.47673
	1383.93	-1.56622	1.25149
	1385.83	-0.889806	0.943295
	1387.73	-0.7745	0.880057
	1389.63	-0.0985942	0.313997
	1391.52	0.970661	0.985221
	1393.42	2.38332	1.5438
	1395.32	3.70405	1.92459
	1397.22	5.15473	2.2704
	1399.12	6.81398	2.61036
	1401.02	8.50219	2.91585
	1402.92	10.5951	3.25502
	1404.81	12.6559	3.55751
	1406.71	15.3234	3.91452
	1408.61	16.9721	4.11972
	1410.51	18.3717	4.28622
	1412.41	17.6404	4.20005
	1414.31	16.8588	4.10595
	1416.21	14.9574	3.86748
	1418.11	12.5454	3.54195
	1420	10.1189	3.18102
	1421.9	7.87266	2.80583
	1423.8	6.24123	2.49825
	1425.7	4.80094	2.19111
	1427.6	3.5606	1.88696
	1429.5	2.9905	1.72931
	1431.4	2.77838	1.66685
	1433.29	2.37533	1.54121
	1435.19	1.88305	1.37224
	1437.09	1.26131	1.12308
	1438.99	0.517862	0.719626
	1440.89	0.341622	0.584485
	1442.79	0.300011	0.547733
	1444.69	0.116181	0.340853
	1446.58	-0.283266	0.532228
	1448.48	-0.293807	0.54204
	1450.38	-0.327319	0.572118
	1452.28	-0.578436	0.76055
	1454.18	-0.502256	0.7087
	1456.08	-0.617274	0.785668
	1457.98	-0.389538	0.62413
	1459.87	-0.423767	0.650974
	1461.77	-0.175278	0.418662
	1463.67	-0.327902	0.572628
	1465.57	-0.425534	0.65233
	1467.47	-0.0348169	0.186593
	1469.37	-0.181977	0.426588
	1471.27	0.150107	0.387437
	1473.17	0.192194	0.438399
	1475.06	0.270128	0.519738
	1476.96	-0.121582	0.348686
	1478.86	-0.104215	0.322823
	1480.76	0.186917	0.432339
	1482.66	0.312291	0.55883
	1484.56	0.0909374	0.301558
	1486.46	0.281522	0.530587
	1488.35	0.171249	0.413822
	1490.25	-0.289304	0.53787
	1492.15	-0.0723353	0.268952
	1494.05	0.328227	0.572911
	1495.95	0.438973	0.662551
	1497.85	0.395665	0.629019
	1499.75	0.663373	0.814477
	1501.64	1.15276	1.07367
	1503.54	1.27047	1.12715
	1505.44	1.06609	1.03252
	1507.34	0.844298	0.918857
	1509.24	1.32955	1.15306
	1511.14	1.54804	1.2442
	1513.04	1.15986	1.07697
	1514.93	0.187797	0.433356
	1516.83	-0.168971	0.41106
	1518.73	0.0630658	0.251129
	1520.63	0.368753	0.607251
	1522.53	0.424195	0.651303
	1524.43	-0.0575936	0.239987
	1526.33	-0.328056	0.572761
	1528.23	-0.451742	0.672117
	1530.12	-0.148884	0.385855
	1532.02	0.16365	0.404537
	1533.92	0.183181	0.427996
	1535.82	-0.0979087	0.312904
	1537.72	-0.125137	0.353747
	1539.62	-0.217551	0.466424
	1541.52	0.0809739	0.284559
	1543.41	0.178127	0.422051
	1545.31	0.322246	0.567667
	1547.21	0.201976	0.449418
	1549.11	0.0540261	0.232435
	1551.01	-0.262778	0.512619
	1552.91	0.057399	0.239581
	1554.81	0.116539	0.341378
	1556.7	0.197491	0.4444
	1558.6	0.367308	0.606059
	1560.5	0.82499	0.90829
	1562.4	0.941594	0.970358
	1564.3	0.91402	0.956044
	1566.2	0.688678	0.829866
	1568.1	0.715043	0.845602
	1569.99	0.932702	0.965765
	1571.89	1.10399	1.05071
	1573.79	1.35151	1.16255
	1575.69	1.8317	1.3534
	1577.59	2.20013	1.48328
	1579.49	2.33146	1.52691
	1581.39	2.38961	1.54584
	1583.29	2.73158	1.65275
	1585.18	3.09502	1.75927
	1587.08	3.39114	1.8415
	1588.98	3.99	1.9975
	1590.88	4.54862	2.13275
	1592.78	5.29962	2.30209
	1594.68	5.91366	2.4318
	1596.58	6.25166	2.50033
	1598.47	7.04688	2.6546
	1600.37	7.39222	2.71886
	1602.27	8.17685	2.85952
	1604.17	9.46395	3.07635
	1606.07	10.7428	3.27763
	1607.97	11.4507	3.38389
	1609.87	12.0521	3.47161
	1611.76	12.9067	3.59259
	1613.66	14.0873	3.75331
	1615.56	15.9076	3.98843
	1617.46	18.0265	4.24577
	1619.36	20.8534	4.56655
	1621.26	24.42	4.94166
	1623.16	29.1241	5.39667
	1625.05	35.0056	5.91655
	1626.95	41.4145	6.43541
	1628.85	46.0294	6.7845
	1630.75	47.231	6.87248
	1632.65	45.3626	6.73518
	1634.55	40.6058	6.37227
	1636.45	35.5944	5.96611
	1638.34	31.0851	5.5754
	1640.24	28.3557	5.325
	1642.14	26.7031	5.1675
	1644.04	26.4034	5.13842
	1645.94	26.7731	5.17427
	1647.84	27.8643	5.27866
	1649.74	28.9827	5.38356
	1651.64	30.5906	5.53087
	1653.53	33.509	5.78869
	1655.43	36.633	6.05252
	1657.33	38.9832	6.24365
	1659.23	40.0203	6.32616
	1661.13	39.7664	6.30606
	1663.03	38.6867	6.21987
	1664.93	36.3843	6.03194
	1666.82	32.9673	5.74171
	1668.72	28.344	5.32391
	1670.62	23.8891	4.88765
	1672.52	20.7186	4.55176
	1674.42	18.838	4.34028
	1676.32	17.4138	4.17299
	1678.22	15.3998	3.92426
	1680.11	13.819	3.71739
	1682.01	12.3727	3.51748
	1683.91	11.4505	3.38387
	1685.81	10.0673	3.17291
	1687.71	9.1324	3.02199
	1689.61	8.24782	2.8719
	1691.51	8.1188	2.84935
	1693.4	7.73113	2.78049
	1695.3	7.60228	2.75722
	1697.2	6.98063	2.64209
	1699.1	6.55903	2.56106
	1701	6.11881	2.47362
	1702.9	5.99508	2.44848
	1704.8	5.31082	2.30452
	1706.7	4.60858	2.14676
	1708.59	3.80262	1.95003
	1710.49	2.92085	1.70905
	1712.39	1.93371	1.39058
	1714.29	1.23726	1.11232
	1716.19	0.660563	0.81275
	1718.09	0.685898	0.828189
	1719.99	0.647406	0.804615
	1721.88	0.447276	0.668787
	1723.78	0.11412	0.337817
	1725.68	-0.408483	0.639126
	1727.58	-0.83689	0.914817
	1729.48	-1.02928	1.01454
	1731.38	-1.10464	1.05102
	1733.28	-0.880654	0.938432
	1735.17	-0.564434	0.751288
	1737.07	-0.131174	0.36218
	1738.97	-0.34656	0.588693
	1740.87	-0.664993	0.815471
	1742.77	-0.861827	0.928346
	1744.67	-0.5892	0.767594
	1746.57	-0.0129711	0.113891
	1748.46	0.59002	0.768128
	1750.36	1.09195	1.04496
	1752.26	1.87763	1.37027
	1754.16	2.5911	1.60969
	1756.06	3.35043	1.83042
	1757.96	3.87029	1.9673
	1759.86	5.08437	2.25486
	1761.76	6.20611	2.49121
	1763.65	7.18807	2.68106
	1765.55	7.90177	2.81101
	1767.45	8.73393	2.95532
	1769.35	9.39161	3.06457
	1771.25	10.1431	3.18482
	1773.15	10.5832	3.25318
	1775.05	11.2976	3.36118
	1776.94	12.2831	3.50473
	1778.84	14.0036	3.74214
	1780.74	16.105	4.0131
	1782.64	17.6433	4.2004
	1784.54	19.7845	4.44798
	1786.44	22.4811	4.74143
	1788.34	26.4479	5.14275
	1790.23	31.8389	5.6426
	1792.13	37.5941	6.1314
	1794.03	44.6826	6.6845
	1795.93	53.3522	7.30426
	1797.83	64.4475	8.02792
	1799.73	77.8329	8.8223
	1801.63	92.7443	9.63038
	1803.52	108.675	10.4247
	1805.42	121.574	11.026
	1807.32	131.051	11.4478
	1809.22	135.297	11.6317
	1811.12	136.534	11.6848
	1813.02	135.35	11.634
	1814.92	132.364	11.5049
	1816.82	127.467	11.2901
	1818.71	118.846	10.9016
	1820.61	108.381	10.4106
	1822.51	95.927	9.79423
	1824.41	83.9265	9.16114
	1826.31	72.7119	8.52713
	1828.21	63.3063	7.95652
	1830.11	55.6849	7.46223
	1832	49.8725	7.06204
	1833.9	45.1297	6.71787
	1835.8	41.1755	6.41682
	1837.7	37.3663	6.1128
	1839.6	33.4313	5.78198
	1841.5	29.5019	5.43157
	1843.4	25.5743	5.0571
	1845.29	21.9666	4.68685
	1847.19	19.0309	4.36244
	1849.09	16.0777	4.0097
	1850.99	13.7985	3.71464
	1852.89	11.8337	3.44001
	1854.79	10.682	3.26834
	1856.69	8.99942	2.9999
	1858.58	7.97562	2.82411
	1860.48	7.38886	2.71825
	1862.38	7.08566	2.66189
	1864.28	6.90023	2.62683
	1866.18	6.63232	2.57533
	1868.08	6.79002	2.60577
	1869.98	6.51486	2.55242
	1871.88	6.72745	2.59373
	1873.77	7.46468	2.73216
	1875.67	8.33193	2.88651
	1877.57	8.55639	2.92513
	1879.47	9.14176	3.02353
	1881.37	10.5216	3.2437
	1883.27	11.7483	3.42759
	1885.17	13.0279	3.60941
	1887.06	14.5548	3.81508
	1888.96	16.0927	4.01157
	1890.86	17.4193	4.17365
	1892.76	19.099	4.37024
	1894.66	21.1822	4.60241
	1896.56	23.6217	4.86022
	1898.46	26.0551	5.10442
	1900.35	28.7311	5.36014
	1902.25	31.6603	5.62674
	1904.15	34.3662	5.86227
	1906.05	37.5199	6.12535
	1907.95	40.5534	6.36816
	1909.85	42.7326	6.53702
	1911.75	43.9704	6.63102
	1913.64	44.079	6.6392
	1915.54	43.2009	6.57274
	1917.44	41.3859	6.43318
	1919.34	39.0224	6.24679
	1921.24	36.3909	6.03249
	1923.14	33.4873	5.78682
	1925.04	29.9028	5.46835
	1926.94	26.4802	5.14589
	1928.83	22.8084	4.77582
	1930.73	19.6478	4.43259
	1932.63	16.3328	4.04139
	1934.53	13.3196	3.6496
	1936.43	10.586	3.25361
	1938.33	8.42511	2.9026
	1940.23	6.14052	2.47801
	1942.12	4.10388	2.0258
	1944.02	2.62367	1.61978
	1945.92	2.03702	1.42724
	1947.82	1.59829	1.26424
	1949.72	1.2703	1.12707
	1951.62	1.2021	1.0964
	1953.52	1.54633	1.24352
	1955.41	2.28431	1.51139
	1957.31	3.71852	1.92835
	1959.21	5.53808	2.35331
	1961.11	8.13148	2.85158
	1963.01	11.065	3.3264
	1964.91	14.8845	3.85805
	1966.81	19.3705	4.40119
	1968.7	23.9837	4.89732
	1970.6	29.4083	5.42294
	1972.5	35.1225	5.92642
	1974.4	41.663	6.45469
	1976.3	47.062	6.86018
	1978.2	52.7882	7.26555
	1980.1	57.2352	7.5654
	1982	62.1753	7.88513
	1983.89	65.1602	8.07218
	1985.79	67.7305	8.22986
	1987.69	68.9616	8.30431
	1989.59	68.7208	8.2898
	1991.49	67.3916	8.20924
	1993.39	64.4184	8.02611
	1995.29	62.7531	7.92169
	1997.18	59.6676	7.72448
	1999.08	57.9247	7.61083
	2000.98	54.1981	7.36194
	2002.88	51.7973	7.19703
	2004.78	48.1143	6.93645
	2006.68	45.0267	6.7102
	2008.58	40.4339	6.35877
	2010.47	37.4302	6.11802
	2012.37	33.7899	5.81291
	2014.27	31.3489	5.59901
	2016.17	28.1092	5.30182
	2018.07	26.6421	5.1616
	2019.97	24.8537	4.98535
	2021.87	24.1331	4.91255
	2023.76	22.8394	4.77906
	2025.66	21.7768	4.66656
	2027.56	20.6997	4.54969
	2029.46	19.8106	4.45091
	2031.36	19.2938	4.39247
	2033.26	18.5869	4.31126
	2035.16	18.2271	4.26932
	2037.06	17.2095	4.14843
	2038.95	16.6788	4.08396
	2040.85	15.9477	3.99346
	2042.75	15.0356	3.87757
	2044.65	14.2327	3.77262
	2046.55	13.6112	3.68933
	2048.45	12.9835	3.60327
	2050.35	12.6229	3.55287
	2052.24	12.506	3.53638
	2054.14	12.502	3.53582
	2056.04	12.6172	3.55206
	2057.94	12.209	3.49414
	2059.84	12.3078	3.50824
	2061.74	11.9751	3.46051
	2063.64	12.1457	3.48507
	2065.53	11.995	3.46338
	2067.43	12.0078	3.46523
	2069.33	12.2099	3.49427
	2071.23	12.6902	3.56233
	2073.13	12.7796	3.57485
	2075.03	13.0541	3.61305
	2076.93	13.2054	3.63392
	2078.82	13.3985	3.66039
	2080.72	13.4595	3.66872
	2082.62	13.6669	3.69688
	2084.52	13.8789	3.72544
	2086.42	14.1465	3.76118
	2088.32	14.0634	3.75012
	2090.22	13.8107	3.71627
	2092.12	14.1336	3.75946
	2094.01	14.6323	3.82522
	2095.91	15.3462	3.91743
	2097.81	15.7377	3.96708
	2099.71	15.7337	3.96658
	2101.61	15.7102	3.9636
	2103.51	16.1861	4.02319
	2105.41	16.8309	4.10255
	2107.3	17.3181	4.1615
	2109.2	17.4405	4.17619
	2111.1	17.6459	4.2007
	2113	17.4533	4.17772
	2114.9	17.5208	4.18579
	2116.8	17.226	4.15042
	2118.7	16.7982	4.09856
	2120.59	15.9107	3.98882
	2122.49	15.2363	3.90336
	2124.39	14.3556	3.78888
	2126.29	13.3871	3.65884
	2128.19	12.7294	3.56782
	2130.09	11.4127	3.37827
	2131.99	10.9507	3.30918
	2133.88	10.2963	3.20878
	2135.78	9.48371	3.07956
	2137.68	8.61791	2.93563
	2139.58	7.85947	2.80347
	2141.48	7.20851	2.68487
	2143.38	6.45652	2.54097
	2145.28	5.31345	2.30509
	2147.17	4.54117	2.131
	2149.07	3.51712	1.8754
	2150.97	2.67719	1.63621
	2152.87	2.0974	1.44824
	2154.77	1.39209	1.17987
	2156.67	0.667413	0.816954
	2158.57	0.141677	0.3764
	2160.47	-0.196045	0.44277
	2162.36	-0.567457	0.753297
	2164.26	-0.719228	0.848073
	2166.16	-0.723857	0.850798
	2168.06	-0.545755	0.738752
	2169.96	-0.298403	0.546263
	2171.86	0.245786	0.495768
	2173.76	1.0261	1.01297
	2175.65	1.75211	1.32367
	2177.55	2.86868	1.69372
	2179.45	4.29606	2.07269
	2181.35	6.06745	2.46322
	2183.25	8.00768	2.82978
	2185.15	10.2159	3.19623
	2187.05	12.2946	3.50637
	2188.94	14.7201	3.83668
	2190.84	17.5119	4.18473
	2192.74	20.6498	4.5442
	2194.64	23.849	4.88354
	2196.54	26.7098	5.16816
	2198.44	28.5025	5.33877
	2200.34	28.9698	5.38236
	2202.23	27.6287	5.2563
	2204.13	24.9831	4.99831
	2206.03	21.5913	4.64665
	2207.93	18.0993	4.25433
	2209.83	14.5717	3.81729
	2211.73	11.3869	3.37445
	2213.63	9.04344	3.00723
	2215.53	7.041	2.65349
	2217.42	5.32313	2.30719
	2219.32	4.18265	2.04515
	2221.22	3.45781	1.85952
	2223.12	2.85734	1.69037
	2225.02	2.3402	1.52977
	2226.92	1.82164	1.34968
	2228.82	1.35963	1.16603
	2230.71	0.719999	0.848528
	2232.61	0.027548	0.165976
	2234.51	-0.194468	0.440986
	2236.41	-0.208904	0.457061
	2238.31	-0.301371	0.548973
	2240.21	-0.633492	0.795922
	2242.11	-0.796531	0.892486
	2244	-0.813777	0.902096
	2245.9	-0.542834	0.736773
	2247.8	-0.189433	0.435239
	2249.7	0.0812198	0.284991
	2251.6	0.257696	0.507637
	2253.5	0.555262	0.745159
	2255.4	1.10087	1.04922
	2257.29	1.66575	1.29064
	2259.19	2.0095	1.41757
	2261.09	2.15179	1.4669
	2262.99	2.03371	1.42608
	2264.89	1.73157	1.31589
	2266.79	2.03531	1.42664
	2268.69	2.41397	1.5537
	2270.59	4.34022	2.08332
	2272.48	3.59778	1.89678
	2274.38	5.4867	2.34237
	2276.28	5.7944	2.40716
	2278.18	4.90344	2.21437
	2280.08	1.41374	1.18901
	2281.98	-0.183307	0.428143
	2283.88	-0.238895	0.488769
	2285.77	-0.11528	0.33953
	2287.67	-0.265186	0.514962
	2289.57	-0.0817173	0.285862
	2291.47	0.0226459	0.150485
	2293.37	0.170785	0.413262
	2295.27	-0.00421618	0.0649321
	2297.17	-0.195031	0.441623
	2299.06	-0.356928	0.597435
	2300.96	-0.153014	0.39117
	2302.86	0.360718	0.600598
	2304.76	0.740479	0.860511
	2306.66	0.739321	0.859838
	2308.56	0.51885	0.720312
	2310.46	0.468756	0.684658
	2312.35	0.526644	0.725702
	2314.25	0.410742	0.640892
	2316.15	0.425508	0.652309
	2318.05	0.42023	0.648252
	2319.95	0.665499	0.815781
	2321.85	0.454301	0.674019
	2323.75	0.271966	0.521504
	2325.65	-0.0358996	0.189472
	2327.54	0.0390381	0.197581
	2329.44	0.0451514	0.212489
	2331.34	0.235266	0.485042
	2333.24	0.36209	0.601739
	2335.14	0.501429	0.708117
	2337.04	0.409167	0.639662
	2338.94	0.325914	0.570889
	2340.83	0.498275	0.705886
	2342.73	0.335795	0.579478
	2344.63	0.191826	0.437979
	2346.53	0.0625783	0.250157
	2348.43	0.0243342	0.155994
	2350.33	-0.0291838	0.170833
	2352.23	-0.0838813	0.289623
	2354.12	-0.176444	0.420052
	2356.02	-0.123759	0.351794
	2357.92	0.131286	0.362334
	2359.82	0.340331	0.583379
	2361.72	0.380699	0.617008
	2363.62	0.268452	0.518124
	2365.52	0.1496	0.386782
	2367.41	0.331555	0.575808
	2369.31	0.471805	0.686881
	2371.21	0.444981	0.667069
	2373.11	0.176225	0.419791
	2375.01	0.0521115	0.22828
	2376.91	0.00197414	0.0444313
	2378.81	0.0830091	0.288113
	2380.71	-0.027803	0.166742
	2382.6	0.161547	0.40193
	2384.5	0.23776	0.487606
	2386.4	0.297048	0.545021
	2388.3	0.110001	0.331664
	2390.2	0.0357088	0.188968
	2392.1	0.0392858	0.198207
	2394	0.372404	0.610249
	2395.89	0.676788	0.822671
	2397.79	0.48363	0.695435
	2399.69	0.147209	0.383678
	2401.59	-0.0979675	0.312998
	2403.49	0.140242	0.374489
	2405.39	0.182843	0.427602
	2407.29	0.140009	0.374178
	2409.18	-0.0680464	0.260857
	2411.08	-0.185972	0.431245
	2412.98	-0.136438	0.369375
	2414.88	-0.081992	0.286342
	2416.78	0.16048	0.400599
	2418.68	0.0200794	0.141702
	2420.58	-0.0269796	0.164255
	2422.47	0.0634151	0.251823
	2424.37	-0.0409469	0.202353
