Generated file C:/Users/didvk/OneDrive - University of Florida/UF_Isaiah_06-16-2020-Tue/Analysis/Re0.1Mo0.9B2/Re0.1Mo0.9B2_HPXRD_run2_300_20220710 - Copy/mask&dat&fxye_4position/14_ReMoB2_66p0GPa_595psi_P1_C4_D1w_102.fxye using DIOPTAS
# == pyFAI calibration ==
# Distance Sample to Detector: 0.2103851508954585 m
# PONI: 8.889e-02, 8.665e-02 m
# Rotations: 0.008634 -0.000915 0.000000 rad
# 
# == Fit2d calibration ==
# Distance Sample-beamCenter: 210.393 mm
# Center: x=493.236, y=515.685 pix
# Tilt: 0.497 deg  TiltPlanRot: -173.953 deg
# 
# Detector Detector	 Spline= None	 PixelSize= 1.720e-04, 1.720e-04 m
#    Detector has a mask: False 
#    Detector has a dark current: False 
#    detector has a flat field: False 
# 
# Wavelength: 4.133e-11 m
# Mask applied: None
# Dark current applied: None
# Flat field applied: None
# Polarization factor: None
# Normalization factor: None
BANK	1	1129	1129 CONS	282.731	1.89862 0.4133 0.0 FXYE
	282.731	0.488369	0.698834
	284.629	0.72643	0.852308
	286.528	0.72083	0.849017
	288.427	0.434657	0.659285
	290.325	0.408801	0.639376
	292.224	-0.132803	0.364422
	294.122	0.00313177	0.0559622
	296.021	0.346222	0.588406
	297.92	0.909116	0.953476
	299.818	0.92058	0.959469
	301.717	0.143441	0.378735
	303.616	-0.108505	0.329401
	305.514	0.344836	0.587228
	307.413	0.891487	0.944186
	309.311	1.17662	1.08472
	311.21	1.51771	1.23195
	313.109	1.72474	1.31329
	315.007	1.50307	1.226
	316.906	1.75444	1.32455
	318.805	1.22229	1.10557
	320.703	1.58632	1.25949
	322.602	1.76396	1.32814
	324.5	1.98851	1.41015
	326.399	2.45804	1.56781
	328.298	3.00663	1.73396
	330.196	3.79215	1.94734
	332.095	3.91395	1.97837
	333.993	3.81062	1.95208
	335.892	3.71892	1.92845
	337.791	4.40662	2.09919
	339.689	5.23619	2.28827
	341.588	6.74519	2.59715
	343.487	8.5207	2.91902
	345.385	10.7039	3.27169
	347.284	13.9061	3.72909
	349.182	18.0977	4.25414
	351.081	22.6302	4.75712
	352.98	25.727	5.07218
	354.878	25.2387	5.02381
	356.777	22.0537	4.69614
	358.676	17.1998	4.14727
	360.574	12.5129	3.53735
	362.473	8.62455	2.93676
	364.371	6.03363	2.45635
	366.27	4.50864	2.12336
	368.169	3.54184	1.88198
	370.067	2.86843	1.69365
	371.966	2.34647	1.53182
	373.864	2.42137	1.55608
	375.763	2.31531	1.52161
	377.662	2.27845	1.50945
	379.56	2.06501	1.43701
	381.459	1.56669	1.25168
	383.358	0.965983	0.982844
	385.256	0.918433	0.958349
	387.155	0.974805	0.987322
	389.053	1.23816	1.11273
	390.952	1.14406	1.06961
	392.851	0.547596	0.739997
	394.749	0.258748	0.508673
	396.648	0.464523	0.681559
	398.547	0.830827	0.911497
	400.445	0.716057	0.846201
	402.344	0.610514	0.781354
	404.242	0.032406	0.180017
	406.141	-0.0471855	0.217222
	408.04	0.68049	0.824918
	409.938	1.65348	1.28588
	411.837	1.80683	1.34418
	413.735	1.44805	1.20335
	415.634	1.30217	1.14112
	417.533	0.852869	0.923509
	419.431	0.646082	0.803792
	421.33	0.665728	0.815921
	423.229	0.977009	0.988438
	425.127	1.09574	1.04678
	427.026	1.24534	1.11595
	428.924	1.5392	1.24065
	430.823	1.17666	1.08474
	432.722	0.801502	0.895266
	434.62	0.495815	0.704141
	436.519	0.354212	0.595157
	438.418	0.0768627	0.277241
	440.316	0.187465	0.432972
	442.215	0.346607	0.588733
	444.113	0.923476	0.960976
	446.012	0.886124	0.941342
	447.911	0.0535292	0.231364
	449.809	0.00733088	0.0856206
	451.708	0.173542	0.416584
	453.606	0.482231	0.694428
	455.505	0.742595	0.86174
	457.404	0.895512	0.946315
	459.302	0.946211	0.972734
	461.201	1.15776	1.07599
	463.1	1.23706	1.11223
	464.998	0.633236	0.795761
	466.897	0.0071647	0.0846445
	468.795	-0.19674	0.443553
	470.694	0.332121	0.5763
	472.593	1.28985	1.13571
	474.491	1.57434	1.25473
	476.39	2.05493	1.4335
	478.289	1.63948	1.28042
	480.187	1.42183	1.19241
	482.086	0.935465	0.967194
	483.984	0.959586	0.979585
	485.883	0.982344	0.991133
	487.782	0.95	0.974679
	489.68	1.01293	1.00645
	491.579	0.42918	0.655119
	493.478	0.543323	0.737105
	495.376	0.186591	0.431962
	497.275	-0.13304	0.364746
	499.173	-0.0686401	0.261993
	501.072	-0.0750991	0.274042
	502.971	0.144164	0.37969
	504.869	0.0378592	0.194574
	506.768	0.444122	0.666425
	508.666	0.939995	0.969533
	510.565	0.826442	0.909089
	512.464	0.348298	0.590168
	514.362	-0.108191	0.328925
	516.261	0.442636	0.665309
	518.16	0.629092	0.793153
	520.058	0.549805	0.741488
	521.957	0.207483	0.455503
	523.855	0.429731	0.655538
	525.754	0.960542	0.980073
	527.653	1.28502	1.13359
	529.551	1.3418	1.15836
	531.45	1.00669	1.00334
	533.349	0.590395	0.768372
	535.247	0.687991	0.829452
	537.146	0.410645	0.640816
	539.044	0.70789	0.841362
	540.943	0.72121	0.849241
	542.842	0.572212	0.756447
	544.74	0.189918	0.435796
	546.639	0.0715177	0.267428
	548.537	0.547033	0.739617
	550.436	0.833162	0.912777
	552.335	0.905074	0.951354
	554.233	0.780385	0.883394
	556.132	0.371009	0.609105
	558.031	0.0669919	0.258828
	559.929	-0.566479	0.752648
	561.828	0.135225	0.36773
	563.726	0.298552	0.546399
	565.625	0.95606	0.977783
	567.524	0.950742	0.97506
	569.422	0.635482	0.797171
	571.321	0.880655	0.938432
	573.22	1.05581	1.02752
	575.118	1.35875	1.16565
	577.017	1.49554	1.22292
	578.915	1.00923	1.00461
	580.814	0.807585	0.898657
	582.713	0.808181	0.898989
	584.611	0.823382	0.907404
	586.51	0.572182	0.756427
	588.408	0.661233	0.813162
	590.307	0.871351	0.933462
	592.206	0.938246	0.968631
	594.104	0.615639	0.784627
	596.003	0.803678	0.896481
	597.902	0.982691	0.991308
	599.8	1.66557	1.29057
	601.699	1.89024	1.37486
	603.597	2.31754	1.52235
	605.496	2.06664	1.43758
	607.395	1.8443	1.35805
	609.293	1.60208	1.26573
	611.192	1.29289	1.13705
	613.091	1.04458	1.02205
	614.989	0.622532	0.789007
	616.888	0.701972	0.837837
	618.786	0.0338672	0.18403
	620.685	-0.00652938	0.0808046
	622.584	-0.141755	0.376504
	624.482	0.149664	0.386865
	626.381	0.0675469	0.259898
	628.279	0.495581	0.703975
	630.178	0.726155	0.852147
	632.077	1.20509	1.09777
	633.975	1.95358	1.3977
	635.874	2.8773	1.69626
	637.773	3.99283	1.99821
	639.671	5.97246	2.44386
	641.57	8.01131	2.83043
	643.468	10.0196	3.16537
	645.367	10.6702	3.26652
	647.266	10.3354	3.21487
	649.164	8.14066	2.85318
	651.063	6.4134	2.53247
	652.962	4.80883	2.19291
	654.86	3.77954	1.9441
	656.759	3.18275	1.78403
	658.657	2.84167	1.68572
	660.556	2.62585	1.62045
	662.455	2.71798	1.64863
	664.353	2.61843	1.61816
	666.252	3.27428	1.8095
	668.15	4.26677	2.06562
	670.049	5.60463	2.36741
	671.948	6.76232	2.60045
	673.846	7.98462	2.82571
	675.745	10.2109	3.19545
	677.644	12.7452	3.57004
	679.542	15.5192	3.93944
	681.441	18.1442	4.2596
	683.339	21.294	4.61454
	685.238	23.4534	4.84287
	687.137	25.3231	5.03221
	689.035	26.8309	5.17985
	690.934	30.195	5.49499
	692.833	35.0815	5.92297
	694.731	43.23	6.57495
	696.63	53.6902	7.32736
	698.528	68.7877	8.29384
	700.427	88.1293	9.38772
	702.326	110.839	10.528
	704.224	132.545	11.5128
	706.123	151.123	12.2932
	708.021	160.322	12.6618
	709.92	158.372	12.5846
	711.819	148.193	12.1735
	713.717	130.066	11.4046
	715.616	110.028	10.4894
	717.515	89.1228	9.44049
	719.413	69.5416	8.33916
	721.312	53.6053	7.32156
	723.21	40.2112	6.34123
	725.109	30.8198	5.55156
	727.008	23.0337	4.79934
	728.906	17.7012	4.20728
	730.805	13.5673	3.68338
	732.704	10.9987	3.31644
	734.602	9.141	3.02341
	736.501	8.41719	2.90124
	738.399	7.23324	2.68947
	740.298	6.45283	2.54024
	742.197	5.11203	2.26098
	744.095	4.66847	2.16066
	745.994	4.20744	2.05121
	747.892	3.56028	1.88687
	749.791	2.67539	1.63566
	751.69	1.69351	1.30135
	753.588	1.68416	1.29775
	755.487	1.3791	1.17435
	757.386	1.3387	1.15702
	759.284	0.822003	0.906644
	761.183	0.850502	0.922227
	763.081	0.716724	0.846596
	764.98	1.28516	1.13365
	766.879	1.16763	1.08057
	768.777	1.02603	1.01293
	770.676	0.799943	0.894395
	772.575	0.906306	0.952001
	774.473	0.701583	0.837605
	776.372	0.745402	0.863367
	778.27	0.16513	0.406362
	780.169	-0.108846	0.329918
	782.068	-0.585274	0.765032
	783.966	-0.09024	0.3004
	785.865	0.47716	0.690767
	787.764	0.934617	0.966756
	789.662	1.02755	1.01368
	791.561	0.738453	0.859333
	793.459	0.386274	0.621509
	795.358	0.339661	0.582804
	797.257	0.298107	0.545992
	799.155	0.67089	0.819079
	801.054	0.794734	0.891478
	802.952	0.897355	0.947288
	804.851	0.99223	0.996107
	806.75	1.16638	1.07999
	808.648	1.0029	1.00145
	810.547	0.809128	0.899515
	812.446	0.288814	0.537414
	814.344	0.183337	0.428179
	816.243	0.154512	0.39308
	818.141	-0.0895243	0.299206
	820.04	0.00642357	0.0801472
	821.939	0.127219	0.356677
	823.837	0.469856	0.68546
	825.736	0.566597	0.752727
	827.635	0.202795	0.450328
	829.533	0.337608	0.581041
	831.432	0.519807	0.720977
	833.33	0.599453	0.774243
	835.229	0.364037	0.603355
	837.128	0.206079	0.453959
	839.026	0.376469	0.613571
	840.925	0.182556	0.427266
	842.823	0.255101	0.505076
	844.722	0.526041	0.725287
	846.621	1.01829	1.0091
	848.519	0.943757	0.971471
	850.418	0.989084	0.994527
	852.317	1.01674	1.00834
	854.215	1.1164	1.0566
	856.114	0.895371	0.94624
	858.012	0.679112	0.824083
	859.911	0.374039	0.611587
	861.81	0.591104	0.768833
	863.708	0.665855	0.815999
	865.607	0.324533	0.569678
	867.506	-0.449037	0.670102
	869.404	-0.869849	0.932657
	871.303	-0.830819	0.911493
	873.201	-0.33201	0.576203
	875.1	0.0514762	0.226884
	876.999	-0.548453	0.740576
	878.897	-0.822788	0.907076
	880.796	-1.29678	1.13876
	882.694	-0.620978	0.788022
	884.593	-0.307415	0.55445
	886.492	-0.168815	0.410871
	888.39	0.0187862	0.137063
	890.289	0.01727	0.131415
	892.188	-0.0669625	0.258771
	894.086	0.331815	0.576034
	895.985	0.58046	0.76188
	897.883	0.924109	0.961306
	899.782	1.22541	1.10698
	901.681	1.66453	1.29017
	903.579	2.79069	1.67054
	905.478	4.06382	2.01589
	907.377	5.26477	2.29451
	909.275	6.55424	2.56012
	911.174	8.16013	2.85659
	913.072	10.7313	3.27587
	914.971	13.5612	3.68256
	916.87	17.543	4.18843
	918.768	24.3833	4.93794
	920.667	34.8406	5.90259
	922.565	51.4774	7.17478
	924.464	78.7089	8.8718
	926.363	130.26	11.4131
	928.261	208.117	14.4263
	930.16	319.759	17.8818
	932.059	449.541	21.2024
	933.957	548.284	23.4155
	935.856	606.151	24.6201
	937.754	617.288	24.8453
	939.653	600.592	24.507
	941.552	564.587	23.761
	943.45	518.92	22.7798
	945.349	475.458	21.805
	947.248	442.515	21.0361
	949.146	419.265	20.476
	951.045	426.542	20.6529
	952.943	466.914	21.6082
	954.842	532.881	23.0842
	956.741	628.676	25.0734
	958.639	727.03	26.9635
	960.538	825.368	28.7292
	962.436	900.689	30.0115
	964.335	954.557	30.8959
	966.234	971.455	31.1682
	968.132	966.303	31.0854
	970.031	932.886	30.5432
	971.93	888.552	29.8086
	973.828	816.819	28.58
	975.727	738.948	27.1836
	977.625	647.895	25.4538
	979.524	568.171	23.8363
	981.423	493.809	22.2218
	983.321	426.229	20.6453
	985.22	365.888	19.1282
	987.119	311.795	17.6577
	989.017	266.571	16.327
	990.916	226.886	15.0627
	992.814	192.882	13.8882
	994.713	162.188	12.7353
	996.612	136.124	11.6672
	998.51	111.49	10.5589
	1000.41	90.8619	9.53215
	1002.31	71.9045	8.47965
	1004.21	57.2282	7.56493
	1006.1	45.2574	6.72736
	1008	35.8486	5.98737
	1009.9	28.8818	5.37418
	1011.8	22.844	4.77954
	1013.7	17.876	4.228
	1015.6	13.1959	3.63261
	1017.5	9.24666	3.04083
	1019.4	7.03147	2.65169
	1021.29	5.22126	2.28501
	1023.19	3.89409	1.97334
	1025.09	2.42473	1.55716
	1026.99	0.977855	0.988865
	1028.89	-0.0773052	0.278038
	1030.79	-1.81237	1.34624
	1032.69	-2.47081	1.57188
	1034.58	-2.73361	1.65336
	1036.48	-2.72492	1.65073
	1038.38	-2.03917	1.42799
	1040.28	-1.70792	1.30688
	1042.18	-0.122251	0.349644
	1044.08	0.711052	0.843239
	1045.98	1.41947	1.19141
	1047.87	1.56753	1.25201
	1049.77	2.15006	1.46631
	1051.67	2.29682	1.51553
	1053.57	2.43762	1.56129
	1055.47	2.50325	1.58217
	1057.37	2.53971	1.59365
	1059.27	3.89744	1.97419
	1061.16	4.90712	2.2152
	1063.06	5.85006	2.41869
	1064.96	6.69758	2.58797
	1066.86	7.80344	2.79346
	1068.76	9.19848	3.0329
	1070.66	10.6093	3.2572
	1072.56	12.3347	3.51208
	1074.46	13.8597	3.72286
	1076.35	16.0427	4.00533
	1078.25	18.9685	4.35528
	1080.15	22.3693	4.72962
	1082.05	26.2215	5.12069
	1083.95	29.9639	5.47393
	1085.85	34.2993	5.85656
	1087.75	38.9687	6.24249
	1089.64	43.4006	6.58791
	1091.54	48.4284	6.95905
	1093.44	52.8048	7.26669
	1095.34	56.843	7.53943
	1097.24	61.7041	7.8552
	1099.14	66.0955	8.12992
	1101.04	71.9706	8.48355
	1102.93	75.9966	8.7176
	1104.83	80.6398	8.97997
	1106.73	86.3463	9.29227
	1108.63	91.259	9.55296
	1110.53	97.0411	9.85095
	1112.43	99.0356	9.95167
	1114.33	100.003	10.0002
	1116.22	98.7327	9.93644
	1118.12	95.8337	9.78947
	1120.02	92.7681	9.63162
	1121.92	89.0058	9.43429
	1123.82	85.7699	9.26121
	1125.72	81.6616	9.03668
	1127.62	78.6682	8.86951
	1129.51	74.0483	8.60513
	1131.41	70.6942	8.40799
	1133.31	65.7041	8.10581
	1135.21	61.6214	7.84993
	1137.11	56.8856	7.54226
	1139.01	52.7631	7.26382
	1140.91	48.9525	6.99661
	1142.81	45.2638	6.72784
	1144.7	41.4506	6.43822
	1146.6	37.2147	6.10039
	1148.5	31.7605	5.63564
	1150.4	27.1402	5.20963
	1152.3	23.4351	4.84098
	1154.2	20.031	4.4756
	1156.1	17.2632	4.1549
	1157.99	13.9635	3.73678
	1159.89	11.7542	3.42845
	1161.79	9.22808	3.03777
	1163.69	7.45918	2.73115
	1165.59	6.67148	2.58292
	1167.49	5.90025	2.42904
	1169.39	4.70781	2.16975
	1171.28	3.22615	1.79615
	1173.18	1.70376	1.30528
	1175.08	0.600204	0.774728
	1176.98	-0.214473	0.463112
	1178.88	-0.773973	0.879757
	1180.78	-1.12403	1.0602
	1182.68	-1.38358	1.17626
	1184.57	-0.98477	0.992356
	1186.47	-0.847682	0.920696
	1188.37	-0.230227	0.479819
	1190.27	-0.0799202	0.282702
	1192.17	0.909841	0.953856
	1194.07	2.31821	1.52257
	1195.97	4.23569	2.05808
	1197.87	8.16288	2.85708
	1199.76	12.6458	3.5561
	1201.66	22.4611	4.73932
	1203.56	33.3928	5.77865
	1205.46	56.0091	7.48392
	1207.36	84.3082	9.18195
	1209.26	124.461	11.1562
	1211.16	174.599	13.2136
	1213.05	224.07	14.969
	1214.95	297.291	17.2421
	1216.85	343.391	18.5308
	1218.75	396.402	19.9098
	1220.65	420.521	20.5066
	1222.55	432.149	20.7882
	1224.45	414.708	20.3644
	1226.34	382.765	19.5644
	1228.24	336.631	18.3475
	1230.14	278.889	16.7
	1232.04	245.055	15.6542
	1233.94	199.232	14.115
	1235.84	171.108	13.0808
	1237.74	141.682	11.903
	1239.63	118.845	10.9016
	1241.53	98.4191	9.92064
	1243.43	82.9591	9.10819
	1245.33	71.3953	8.44957
	1247.23	62.4305	7.9013
	1249.13	55.2931	7.43593
	1251.03	50.4723	7.10438
	1252.93	47.2279	6.87226
	1254.82	45.572	6.7507
	1256.72	44.9579	6.70507
	1258.62	44.4094	6.66403
	1260.52	45.2503	6.72683
	1262.42	46.1482	6.79325
	1264.32	48.8264	6.98759
	1266.22	50.117	7.07934
	1268.11	52.9816	7.27884
	1270.01	55.3557	7.44014
	1271.91	57.65	7.59276
	1273.81	61.5881	7.84781
	1275.71	64.5807	8.03621
	1277.61	68.5522	8.27963
	1279.51	72.3241	8.50436
	1281.4	75.3851	8.68246
	1283.3	80.273	8.95952
	1285.2	83.7036	9.14897
	1287.1	88.8887	9.42808
	1289	92.6274	9.62431
	1290.9	96.0792	9.802
	1292.8	99.7741	9.9887
	1294.69	101.077	10.0537
	1296.59	103.173	10.1574
	1298.49	102.381	10.1183
	1300.39	102.969	10.1474
	1302.29	102.689	10.1335
	1304.19	101.932	10.0962
	1306.09	101.107	10.0552
	1307.99	99.7346	9.98672
	1309.88	98.9596	9.94785
	1311.78	97.9862	9.8988
	1313.68	97.7261	9.88565
	1315.58	97.0325	9.85051
	1317.48	94.9236	9.74288
	1319.38	92.7081	9.6285
	1321.28	89.9059	9.48187
	1323.17	88.9869	9.43329
	1325.07	85.7862	9.26208
	1326.97	84.3751	9.18559
	1328.87	80.7448	8.98581
	1330.77	79.1779	8.8982
	1332.67	76.0809	8.72243
	1334.57	73.9911	8.60181
	1336.46	71.248	8.44085
	1338.36	67.5787	8.22062
	1340.26	64.4277	8.02669
	1342.16	60.721	7.79237
	1344.06	57.6932	7.5956
	1345.96	53.1979	7.29369
	1347.86	49.6905	7.04915
	1349.75	44.6542	6.68238
	1351.65	40.5061	6.36444
	1353.55	36.2407	6.02002
	1355.45	32.3254	5.68555
	1357.35	28.9262	5.37831
	1359.25	25.3996	5.0398
	1361.15	22.164	4.70786
	1363.05	18.6978	4.3241
	1364.94	15.5708	3.94599
	1366.84	13.3767	3.65741
	1368.74	10.2658	3.20403
	1370.64	6.99192	2.64422
	1372.54	3.39899	1.84363
	1374.44	1.50587	1.22714
	1376.34	-0.124025	0.352172
	1378.23	-1.50646	1.22738
	1380.13	-2.32622	1.5252
	1382.03	-2.6299	1.6217
	1383.93	-2.32117	1.52354
	1385.83	-2.07685	1.44113
	1387.73	-1.15304	1.0738
	1389.63	-0.674543	0.821306
	1391.52	0.236181	0.485984
	1393.42	1.34883	1.16139
	1395.32	3.17332	1.78138
	1397.22	4.74525	2.17836
	1399.12	6.42127	2.53402
	1401.02	7.96626	2.82246
	1402.92	9.62938	3.10312
	1404.81	11.2911	3.36023
	1406.71	12.4778	3.53239
	1408.61	13.6861	3.69947
	1410.51	15.0205	3.87563
	1412.41	15.9534	3.99417
	1414.31	16.5668	4.07023
	1416.21	16.209	4.02604
	1418.11	15.9381	3.99226
	1420	15.302	3.91178
	1421.9	14.5786	3.81819
	1423.8	13.7873	3.71312
	1425.7	12.4862	3.53359
	1427.6	10.9749	3.31284
	1429.5	9.48605	3.07994
	1431.4	8.57023	2.92749
	1433.29	7.14182	2.67242
	1435.19	5.80584	2.40953
	1437.09	4.43983	2.10709
	1438.99	3.55975	1.88673
	1440.89	2.9044	1.70423
	1442.79	2.38796	1.5453
	1444.69	2.08691	1.44461
	1446.58	1.49615	1.22317
	1448.48	0.929583	0.964149
	1450.38	0.492572	0.701834
	1452.28	0.41331	0.642892
	1454.18	0.0613466	0.247683
	1456.08	-0.151302	0.388975
	1457.98	-0.202723	0.450248
	1459.87	-0.308949	0.555832
	1461.77	-0.394916	0.628423
	1463.67	-1.02853	1.01417
	1465.57	-1.31263	1.1457
	1467.47	-1.10448	1.05094
	1469.37	-0.727023	0.852656
	1471.27	-0.27479	0.524204
	1473.17	0.0808494	0.28434
	1475.06	-0.2641	0.513906
	1476.96	-0.62457	0.790297
	1478.86	-0.848315	0.92104
	1480.76	-0.73011	0.854465
	1482.66	-0.986685	0.99332
	1484.56	-0.732002	0.855571
	1486.46	-0.00103262	0.0321345
	1488.35	0.506284	0.711537
	1490.25	0.422859	0.650276
	1492.15	0.275332	0.524721
	1494.05	0.451268	0.671765
	1495.95	0.490213	0.700152
	1497.85	0.0283373	0.168337
	1499.75	-0.0125885	0.112198
	1501.64	0.125786	0.354663
	1503.54	0.0450276	0.212197
	1505.44	-0.031916	0.17865
	1507.34	0.175839	0.419331
	1509.24	0.812207	0.901225
	1511.14	1.07768	1.03811
	1513.04	0.913265	0.955649
	1514.93	0.966962	0.983342
	1516.83	0.961409	0.980515
	1518.73	1.01711	1.00852
	1520.63	0.936737	0.967852
	1522.53	1.34847	1.16124
	1524.43	1.42561	1.19399
	1526.33	1.47339	1.21383
	1528.23	1.33131	1.15382
	1530.12	1.40761	1.18643
	1532.02	0.957701	0.978622
	1533.92	0.775788	0.880788
	1535.82	0.438984	0.662559
	1537.72	0.629158	0.793195
	1539.62	0.602067	0.775929
	1541.52	0.379687	0.616188
	1543.41	0.495066	0.70361
	1545.31	0.509437	0.713749
	1547.21	0.49414	0.702951
	1549.11	-0.0393064	0.198259
	1551.01	-0.285356	0.534187
	1552.91	-0.311728	0.558326
	1554.81	0.157939	0.397416
	1556.7	0.606286	0.778644
	1558.6	0.433889	0.658703
	1560.5	0.27477	0.524185
	1562.4	0.106515	0.326366
	1564.3	0.179159	0.423272
	1566.2	-0.0835209	0.289
	1568.1	-0.199549	0.446709
	1569.99	0.0504393	0.224587
	1571.89	0.263822	0.513636
	1573.79	0.037298	0.193127
	1575.69	0.247242	0.497234
	1577.59	0.474795	0.689054
	1579.49	0.979533	0.989714
	1581.39	1.16506	1.07938
	1583.29	1.22524	1.1069
	1585.18	1.38752	1.17793
	1587.08	1.82231	1.34993
	1588.98	1.94307	1.39394
	1590.88	1.77921	1.33387
	1592.78	2.03728	1.42733
	1594.68	2.60736	1.61473
	1596.58	2.88355	1.6981
	1598.47	2.77183	1.66488
	1600.37	2.82593	1.68105
	1602.27	3.32544	1.82358
	1604.17	4.07111	2.0177
	1606.07	4.81124	2.19345
	1607.97	5.59536	2.36545
	1609.87	6.53486	2.55634
	1611.76	7.23033	2.68893
	1613.66	7.92894	2.81584
	1615.56	8.30588	2.88199
	1617.46	8.77853	2.96286
	1619.36	9.56339	3.09247
	1621.26	10.947	3.30862
	1623.16	12.2047	3.49352
	1625.05	12.8006	3.57779
	1626.95	13.6363	3.69273
	1628.85	14.4343	3.79924
	1630.75	15.3294	3.91528
	1632.65	15.9751	3.99688
	1634.55	17.0628	4.13072
	1636.45	18.0916	4.25342
	1638.34	19.191	4.38075
	1640.24	19.8451	4.45479
	1642.14	20.8054	4.56129
	1644.04	21.9829	4.68859
	1645.94	23.6605	4.86421
	1647.84	25.1995	5.01991
	1649.74	26.3775	5.1359
	1651.64	27.3848	5.23304
	1653.53	29.0266	5.38763
	1655.43	31.8938	5.64746
	1657.33	34.7288	5.89311
	1659.23	38.45	6.2008
	1661.13	43.3559	6.58452
	1663.03	47.1215	6.86451
	1664.93	51.8497	7.20067
	1666.82	54.6368	7.39167
	1668.72	57.5576	7.58667
	1670.62	59.4483	7.71027
	1672.52	60.1786	7.75749
	1674.42	59.9809	7.74473
	1676.32	58.6477	7.65818
	1678.22	56.8623	7.54071
	1680.11	52.738	7.2621
	1682.01	48.119	6.93678
	1683.91	42.1625	6.49327
	1685.81	35.7769	5.98138
	1687.71	29.8514	5.46365
	1689.61	24.2376	4.92317
	1691.51	19.4881	4.41453
	1693.4	15.6847	3.96039
	1695.3	12.8357	3.5827
	1697.2	10.6365	3.26136
	1699.1	8.67487	2.94531
	1701	7.86688	2.8048
	1702.9	7.64705	2.76533
	1704.8	7.25598	2.69369
	1706.7	6.95439	2.63712
	1708.59	6.76238	2.60046
	1710.49	6.40081	2.52998
	1712.39	5.8323	2.41501
	1714.29	5.62559	2.37183
	1716.19	5.00463	2.2371
	1718.09	4.39603	2.09667
	1719.99	3.47381	1.86382
	1721.88	2.53533	1.59227
	1723.78	1.43117	1.19632
	1725.68	0.49586	0.704173
	1727.58	-0.063164	0.251324
	1729.48	-0.501671	0.708287
	1731.38	-0.84857	0.921178
	1733.28	-1.01918	1.00954
	1735.17	-0.85317	0.923672
	1737.07	-0.441553	0.664494
	1738.97	-0.0443816	0.210669
	1740.87	-0.353052	0.594182
	1742.77	-0.89942	0.948378
	1744.67	-0.869123	0.932268
	1746.57	-0.636741	0.797961
	1748.46	-0.303437	0.550851
	1750.36	-0.174866	0.41817
	1752.26	0.00759083	0.0871254
	1754.16	0.0231717	0.152222
	1756.06	-0.100534	0.317071
	1757.96	0.275574	0.524951
	1759.86	0.775758	0.880771
	1761.76	1.46739	1.21136
	1763.65	1.72966	1.31516
	1765.55	2.23278	1.49425
	1767.45	2.89228	1.70067
	1769.35	3.94536	1.98629
	1771.25	4.51214	2.12418
	1773.15	5.00569	2.23734
	1775.05	5.43625	2.33158
	1776.94	6.06484	2.46269
	1778.84	6.88724	2.62436
	1780.74	8.14344	2.85367
	1782.64	9.17387	3.02884
	1784.54	10.3084	3.21067
	1786.44	11.2897	3.36002
	1788.34	12.8226	3.58087
	1790.23	15.1821	3.89642
	1792.13	18.4564	4.29609
	1794.03	21.5721	4.64458
	1795.93	24.5257	4.95234
	1797.83	27.8832	5.28046
	1799.73	31.9313	5.65078
	1801.63	36.7121	6.05905
	1803.52	42.2196	6.49766
	1805.42	48.2943	6.94941
	1807.32	55.3758	7.44149
	1809.22	63.5286	7.97048
	1811.12	72.5491	8.51758
	1813.02	82.1392	9.06307
	1814.92	92.4433	9.61474
	1816.82	103.249	10.1612
	1818.71	113.807	10.668
	1820.61	122.941	11.0879
	1822.51	129.663	11.387
	1824.41	132.989	11.5321
	1826.31	132.421	11.5074
	1828.21	127.412	11.2877
	1830.11	118.101	10.8674
	1832	106.071	10.2991
	1833.9	93.6949	9.67961
	1835.8	82.0726	9.05939
	1837.7	72.1409	8.49358
	1839.6	62.826	7.92629
	1841.5	55.4854	7.44885
	1843.4	48.8921	6.99229
	1845.29	43.643	6.60628
	1847.19	39.2288	6.26329
	1849.09	35.7273	5.97723
	1850.99	32.2708	5.68074
	1852.89	29.146	5.3987
	1854.79	26.4105	5.13911
	1856.69	23.5202	4.84976
	1858.58	20.7351	4.55358
	1860.48	17.9886	4.24129
	1862.38	15.8424	3.98025
	1864.28	13.7642	3.71001
	1866.18	12.5021	3.53584
	1868.08	11.5393	3.39695
	1869.98	10.6829	3.26847
	1871.88	9.85176	3.13875
	1873.77	9.08937	3.01486
	1875.67	8.65251	2.94151
	1877.57	7.87043	2.80543
	1879.47	7.77978	2.78923
	1881.37	8.03677	2.83492
	1883.27	8.36549	2.89231
	1885.17	8.54282	2.92281
	1887.06	8.4949	2.9146
	1888.96	8.48468	2.91285
	1890.86	8.35481	2.89047
	1892.76	8.82229	2.97023
	1894.66	8.98881	2.99813
	1896.56	9.59138	3.097
	1898.46	10.3939	3.22395
	1900.35	11.6127	3.40774
	1902.25	12.8469	3.58426
	1904.15	13.7241	3.7046
	1906.05	14.8923	3.85906
	1907.95	15.81	3.97618
	1909.85	16.9691	4.11936
	1911.75	18.2941	4.27716
	1913.64	19.9181	4.46298
	1915.54	21.3499	4.6206
	1917.44	22.59	4.75289
	1919.34	24.1228	4.9115
	1921.24	26.0022	5.09923
	1923.14	27.2582	5.22094
	1925.04	28.2824	5.31812
	1926.94	28.8559	5.37177
	1928.83	29.3985	5.42204
	1930.73	29.7621	5.45546
	1932.63	29.5142	5.4327
	1934.53	27.9961	5.29113
	1936.43	25.9095	5.09014
	1938.33	23.8227	4.88085
	1940.23	21.6559	4.65359
	1942.12	19.4536	4.41062
	1944.02	16.8394	4.10358
	1945.92	14.4993	3.8078
	1947.82	12.0619	3.47302
	1949.72	10.0118	3.16414
	1951.62	8.09145	2.84455
	1953.52	6.62614	2.57413
	1955.41	5.03225	2.24327
	1957.31	3.81443	1.95306
	1959.21	2.67187	1.63458
	1961.11	1.80532	1.34362
	1963.01	1.20148	1.09612
	1964.91	0.921044	0.95971
	1966.81	1.03381	1.01677
	1968.7	1.35402	1.16362
	1970.6	1.4594	1.20806
	1972.5	2.39624	1.54798
	1974.4	3.78716	1.94606
	1976.3	5.49971	2.34515
	1978.2	7.29403	2.70075
	1980.1	9.69993	3.11447
	1982	13.0498	3.61245
	1983.89	17.3764	4.16851
	1985.79	22.0224	4.69281
	1987.69	27.1975	5.21512
	1989.59	32.6443	5.71352
	1991.49	38.6193	6.21445
	1993.39	43.1762	6.57086
	1995.29	46.4751	6.81727
	1997.18	48.3042	6.95012
	1999.08	49.1277	7.00911
	2000.98	47.9996	6.92817
	2002.88	46.1734	6.7951
	2004.78	43.4649	6.59279
	2006.68	40.8743	6.3933
	2008.58	38.0588	6.16918
	2010.47	35.8453	5.98709
	2012.37	33.8261	5.81602
	2014.27	32.3971	5.69184
	2016.17	31.476	5.61035
	2018.07	30.9466	5.56297
	2019.97	29.986	5.47595
	2021.87	29.5191	5.43315
	2023.76	29.1967	5.4034
	2025.66	29.5273	5.4339
	2027.56	29.3617	5.41864
	2029.46	29.0882	5.39335
	2031.36	28.361	5.32551
	2033.26	27.851	5.2774
	2035.16	27.1472	5.2103
	2037.06	26.5672	5.15434
	2038.95	25.8119	5.08055
	2040.85	25.0927	5.00926
	2042.75	23.7589	4.87431
	2044.65	22.9891	4.7947
	2046.55	21.7891	4.66788
	2048.45	20.5717	4.5356
	2050.35	19.3549	4.39943
	2052.24	18.4036	4.28995
	2054.14	18.0991	4.2543
	2056.04	17.9238	4.23365
	2057.94	17.5985	4.19506
	2059.84	16.9212	4.11354
	2061.74	16.426	4.0529
	2063.64	15.8581	3.98223
	2065.53	15.2155	3.9007
	2067.43	14.7229	3.83704
	2069.33	14.4054	3.79545
	2071.23	14.4417	3.80023
	2073.13	14.2809	3.77901
	2075.03	14.0171	3.74394
	2076.93	13.6166	3.69006
	2078.82	13.0697	3.61521
	2080.72	13.3065	3.64781
	2082.62	13.2876	3.64522
	2084.52	13.2658	3.64223
	2086.42	13.1058	3.6202
	2088.32	13.2211	3.63609
	2090.22	13.473	3.67056
	2092.12	13.6079	3.68889
	2094.01	13.3416	3.65261
	2095.91	13.1814	3.63062
	2097.81	13.7658	3.71022
	2099.71	13.8317	3.71909
	2101.61	13.7605	3.70952
	2103.51	13.6139	3.68971
	2105.41	13.9614	3.7365
	2107.3	14.0865	3.75319
	2109.2	14.3779	3.79183
	2111.1	14.3949	3.79406
	2113	14.4614	3.80282
	2114.9	14.6068	3.82189
	2116.8	14.7538	3.84106
	2118.7	14.5141	3.80973
	2120.59	14.2597	3.77621
	2122.49	13.9444	3.73422
	2124.39	13.738	3.70648
	2126.29	13.0787	3.61644
	2128.19	12.609	3.55092
	2130.09	11.8698	3.44526
	2131.99	11.3336	3.36655
	2133.88	10.5781	3.2524
	2135.78	9.93417	3.15185
	2137.68	8.88595	2.98093
	2139.58	7.98649	2.82604
	2141.48	7.41441	2.72294
	2143.38	7.03268	2.65192
	2145.28	6.47299	2.54421
	2147.17	5.95553	2.4404
	2149.07	5.45101	2.33474
	2150.97	5.20817	2.28214
	2152.87	4.90909	2.21565
	2154.77	4.61999	2.14942
	2156.67	4.33459	2.08197
	2158.57	3.83198	1.95755
	2160.47	3.34427	1.82873
	2162.36	2.76416	1.66258
	2164.26	2.02472	1.42293
	2166.16	1.34384	1.15924
	2168.06	1.02748	1.01365
	2169.96	0.79443	0.891308
	2171.86	0.566249	0.752495
	2173.76	0.327136	0.571958
	2175.65	0.0564707	0.237636
	2177.55	0.0466984	0.216098
	2179.45	-0.280328	0.529461
	2181.35	-0.582774	0.763397
	2183.25	-1.02531	1.01258
	2185.15	-1.02438	1.01212
	2187.05	-1.15646	1.07539
	2188.94	-0.974967	0.987404
	2190.84	-0.422243	0.649802
	2192.74	0.326415	0.571328
	2194.64	1.07909	1.03879
	2196.54	1.26746	1.12582
	2198.44	1.56438	1.25075
	2200.34	2.11889	1.45564
	2202.23	2.76932	1.66413
	2204.13	3.73309	1.93212
	2206.03	4.81806	2.19501
	2207.93	5.70763	2.38906
	2209.83	6.48979	2.54751
	2211.73	7.12083	2.66849
	2213.63	7.95749	2.8209
	2215.53	8.65431	2.94182
	2217.42	9.00581	3.00097
	2219.32	8.92592	2.98763
	2221.22	8.91049	2.98504
	2223.12	8.68301	2.94669
	2225.02	8.05698	2.83848
	2226.92	7.006	2.64688
	2228.82	6.052	2.46008
	2230.71	5.02391	2.24141
	2232.61	4.30012	2.07367
	2234.51	3.68679	1.9201
	2236.41	3.11168	1.764
	2238.31	2.505	1.58272
	2240.21	2.02542	1.42317
	2242.11	1.7756	1.33252
	2244	1.57848	1.25637
	2245.9	1.25015	1.1181
	2247.8	0.796899	0.892692
	2249.7	0.173003	0.415936
	2251.6	-0.278876	0.528087
	2253.5	-0.655512	0.809637
	2255.4	-0.581725	0.762709
	2257.29	-0.255859	0.505825
	2259.19	-0.0668848	0.258621
	2261.09	0.0680162	0.260799
	2262.99	0.28449	0.533376
	2264.89	0.342478	0.585216
	2266.79	0.304337	0.551668
	2268.69	0.36414	0.60344
	2270.59	0.325864	0.570845
	2272.48	0.246221	0.496206
	2274.38	0.239709	0.489601
	2276.28	0.244329	0.494297
	2278.18	0.28151	0.530576
	2280.08	0.479658	0.692574
	2281.98	0.445181	0.667219
	2283.88	0.453416	0.673362
	2285.77	0.230347	0.479945
	2287.67	0.0339612	0.184286
	2289.57	0.0849011	0.291378
	2291.47	0.25028	0.50028
	2293.37	0.390921	0.625237
	2295.27	0.348074	0.589978
	2297.17	0.0353009	0.187885
	2299.06	-0.18236	0.427036
	2300.96	-0.255258	0.505231
	2302.86	-0.0333136	0.18252
	2304.76	0.285515	0.534336
	2306.66	0.406889	0.637879
	2308.56	0.188325	0.433964
	2310.46	-0.0569269	0.238594
	2312.35	-0.202857	0.450396
	2314.25	-0.127908	0.357642
	2316.15	0.134567	0.366834
	2318.05	0.266679	0.51641
	2319.95	0.185357	0.430531
	2321.85	0.331434	0.575703
	2323.75	0.601503	0.775567
	2325.65	0.394023	0.627712
	2327.54	0.0385753	0.196406
	2329.44	0.0405102	0.201272
	2331.34	0.187063	0.432507
	2333.24	0.178055	0.421966
	2335.14	0.134268	0.366425
	2337.04	0.2245	0.473814
	2338.94	0.327484	0.572262
	2340.83	0.398352	0.631151
	2342.73	0.495362	0.70382
	2344.63	0.361378	0.601147
	2346.53	0.0935292	0.305825
	2348.43	-0.100595	0.317167
	2350.33	0.0559268	0.236489
	2352.23	0.162816	0.403504
	2354.12	0.111124	0.333353
	2356.02	0.234552	0.484305
	2357.92	0.216446	0.465237
	2359.82	0.0154324	0.124227
	2361.72	-0.0885973	0.297653
	2363.62	-0.0550551	0.234638
	2365.52	-0.0422984	0.205666
	2367.41	-0.0307311	0.175303
	2369.31	0.370972	0.609075
	2371.21	0.48293	0.694931
	2373.11	0.20582	0.453674
	2375.01	-0.0252334	0.15885
	2376.91	-0.101517	0.318618
	2378.81	-0.0585788	0.242031
	2380.71	0.124774	0.353234
	2382.6	0.349709	0.591362
	2384.5	0.388125	0.622997
	2386.4	0.214969	0.463647
	2388.3	0.186812	0.432217
	2390.2	0.311939	0.558515
	2392.1	0.574387	0.757883
	2394	0.519647	0.720865
	2395.89	0.399972	0.632434
	2397.79	0.273342	0.522821
	2399.69	0.0988929	0.314472
	2401.59	0.096664	0.310908
	2403.49	-0.142927	0.378057
	2405.39	-0.113652	0.337124
	2407.29	-0.245101	0.495076
	2409.18	0.0183814	0.135578
	2411.08	0.162494	0.403105
	2412.98	0.314427	0.560738
	2414.88	0.193395	0.439767
	2416.78	-0.0150813	0.122806
	2418.68	-0.249832	0.499832
	2420.58	-0.122029	0.349327
	2422.47	0.0495694	0.222642
	2424.37	0.0498751	0.223327
