Generated file C:/Users/didvk/OneDrive - University of Florida/UF_Isaiah_06-16-2020-Tue/Analysis/Re0.1Mo0.9B2/Re0.1Mo0.9B2_HPXRD_run2_300_20220710 - Copy/mask&dat&fxye_4position/15_ReMoB2_71p0GPa_620psi_P1_C4_D1w_108.fxye using DIOPTAS
# == pyFAI calibration ==
# Distance Sample to Detector: 0.2103851508954585 m
# PONI: 8.889e-02, 8.665e-02 m
# Rotations: 0.008634 -0.000915 0.000000 rad
# 
# == Fit2d calibration ==
# Distance Sample-beamCenter: 210.393 mm
# Center: x=493.236, y=515.685 pix
# Tilt: 0.497 deg  TiltPlanRot: -173.953 deg
# 
# Detector Detector	 Spline= None	 PixelSize= 1.720e-04, 1.720e-04 m
#    Detector has a mask: False 
#    Detector has a dark current: False 
#    detector has a flat field: False 
# 
# Wavelength: 4.133e-11 m
# Mask applied: None
# Dark current applied: None
# Flat field applied: None
# Polarization factor: None
# Normalization factor: None
BANK	1	1129	1129 CONS	282.731	1.89862 0.4133 0.0 FXYE
	282.731	0.306275	0.553421
	284.629	0.243839	0.4938
	286.528	0.954907	0.977194
	288.427	1.46681	1.21112
	290.325	1.83999	1.35646
	292.224	1.41271	1.18857
	294.122	0.974992	0.987417
	296.021	0.834202	0.913347
	297.92	0.669512	0.818237
	299.818	0.94489	0.972054
	301.717	0.71657	0.846505
	303.616	0.477577	0.691069
	305.514	0.180613	0.424986
	307.413	0.252283	0.502278
	309.311	0.521011	0.721811
	311.21	1.09013	1.04409
	313.109	1.95167	1.39702
	315.007	1.54498	1.24297
	316.906	1.33039	1.15342
	318.805	0.724756	0.851326
	320.703	0.992241	0.996113
	322.602	1.32211	1.14983
	324.5	1.42819	1.19507
	326.399	1.26724	1.12572
	328.298	1.32817	1.15246
	330.196	0.995484	0.997739
	332.095	1.28205	1.13228
	333.993	2.32422	1.52454
	335.892	2.9762	1.72517
	337.791	3.53214	1.8794
	339.689	3.069	1.75186
	341.588	4.02156	2.00538
	343.487	5.88806	2.42653
	345.385	8.87782	2.97957
	347.284	13.3298	3.651
	349.182	20.1472	4.48856
	351.081	29.1143	5.39576
	352.98	39.3454	6.27259
	354.878	46.3042	6.80472
	356.777	45.4278	6.74002
	358.676	36.9506	6.0787
	360.574	25.0059	5.00059
	362.473	15.0309	3.87697
	364.371	9.15267	3.02534
	366.27	5.32915	2.30849
	368.169	3.43174	1.8525
	370.067	2.72323	1.65022
	371.966	2.21058	1.4868
	373.864	1.90411	1.3799
	375.763	1.4602	1.20839
	377.662	1.43091	1.19621
	379.56	1.0156	1.00777
	381.459	0.869791	0.932626
	383.358	0.284624	0.533502
	385.256	0.506599	0.711758
	387.155	0.734653	0.857119
	389.053	0.97453	0.987183
	390.952	1.02762	1.01372
	392.851	0.773723	0.879615
	394.749	1.42627	1.19427
	396.648	1.65077	1.28482
	398.547	1.17329	1.08318
	400.445	0.728777	0.853684
	402.344	0.822714	0.907036
	404.242	1.8126	1.34633
	406.141	2.10686	1.4515
	408.04	1.88684	1.37362
	409.938	1.10167	1.0496
	411.837	0.389713	0.62427
	413.735	0.0530385	0.230301
	415.634	0.189249	0.435028
	417.533	0.199695	0.446872
	419.431	0.75237	0.867393
	421.33	0.828511	0.910226
	423.229	0.919287	0.958795
	425.127	1.06355	1.03129
	427.026	1.99157	1.41123
	428.924	2.3647	1.53776
	430.823	2.59412	1.61063
	432.722	2.27219	1.50738
	434.62	1.59339	1.26229
	436.519	1.01782	1.00887
	438.418	0.713106	0.844456
	440.316	0.392874	0.626797
	442.215	-0.0631634	0.251323
	444.113	-0.33493	0.578732
	446.012	-0.0404658	0.201161
	447.911	0.0501046	0.223841
	449.809	0.607449	0.77939
	451.708	0.92286	0.960656
	453.606	0.768038	0.876378
	455.505	0.47538	0.689478
	457.404	0.535006	0.731441
	459.302	0.500927	0.707762
	461.201	0.0856192	0.292608
	463.1	0.319452	0.565201
	464.998	0.529316	0.727541
	466.897	0.837663	0.915239
	468.795	0.418793	0.647142
	470.694	0.169271	0.411426
	472.593	0.00121361	0.0348369
	474.491	0.441687	0.664595
	476.39	0.980026	0.989963
	478.289	1.21992	1.1045
	480.187	1.06636	1.03265
	482.086	0.395458	0.628854
	483.984	0.698883	0.835992
	485.883	0.709581	0.842366
	487.782	0.750222	0.866154
	489.68	0.420353	0.648346
	491.579	0.669264	0.818086
	493.478	1.06113	1.03011
	495.376	1.6936	1.30138
	497.275	1.78078	1.33446
	499.173	1.25936	1.12221
	501.072	1.11373	1.05533
	502.971	1.21004	1.10002
	504.869	1.3203	1.14904
	506.768	0.945673	0.972457
	508.666	0.616198	0.784983
	510.565	0.214323	0.462951
	512.464	0.0777205	0.278784
	514.362	-0.278692	0.527913
	516.261	-0.0807904	0.284236
	518.16	0.497112	0.705062
	520.058	0.6092	0.780513
	521.957	0.566193	0.752458
	523.855	0.65929	0.811967
	525.754	1.00919	1.00458
	527.653	1.24346	1.11511
	529.551	1.24357	1.11516
	531.45	0.858552	0.926581
	533.349	0.420669	0.64859
	535.247	-0.00284071	0.0532983
	537.146	0.555901	0.745587
	539.044	1.14558	1.07032
	540.943	1.1685	1.08097
	542.842	0.715091	0.84563
	544.74	0.210644	0.45896
	546.639	-0.135626	0.368274
	548.537	0.352353	0.593594
	550.436	0.178504	0.422498
	552.335	0.460691	0.678742
	554.233	0.072413	0.269097
	556.132	0.476011	0.689936
	558.031	0.831203	0.911703
	559.929	0.67744	0.823067
	561.828	0.47921	0.69225
	563.726	-0.172593	0.415444
	565.625	0.123192	0.350987
	567.524	0.411433	0.64143
	569.422	0.742649	0.861771
	571.321	0.99421	0.997101
	573.22	1.06132	1.0302
	575.118	1.37602	1.17304
	577.017	1.15963	1.07686
	578.915	1.35047	1.1621
	580.814	1.37517	1.17268
	582.713	1.27842	1.13067
	584.611	1.13335	1.06459
	586.51	1.32258	1.15003
	588.408	1.42111	1.1921
	590.307	1.08461	1.04145
	592.206	0.56011	0.748405
	594.104	0.433502	0.658409
	596.003	0.880901	0.938563
	597.902	1.55099	1.24539
	599.8	2.53533	1.59227
	601.699	2.73814	1.65473
	603.597	2.7626	1.66211
	605.496	2.33827	1.52914
	607.395	2.17706	1.47549
	609.293	1.66398	1.28995
	611.192	0.786292	0.886731
	613.091	0.275387	0.524773
	614.989	0.103759	0.322117
	616.888	0.0432037	0.207855
	618.786	0.0162248	0.127377
	620.685	-0.070813	0.266107
	622.584	-0.336944	0.580469
	624.482	0.185065	0.430191
	626.381	0.89836	0.947818
	628.279	1.13564	1.06566
	630.178	0.887749	0.942205
	632.077	0.787133	0.887205
	633.975	1.09454	1.0462
	635.874	1.36031	1.16632
	637.773	1.36294	1.16745
	639.671	1.20468	1.09758
	641.57	1.99497	1.41244
	643.468	3.91135	1.97771
	645.367	5.00528	2.23725
	647.266	5.64292	2.37548
	649.164	5.45576	2.33576
	651.063	4.77896	2.18608
	652.962	3.78842	1.94639
	654.86	2.61268	1.61638
	656.759	2.10732	1.45166
	658.657	2.15302	1.46732
	660.556	2.30662	1.51876
	662.455	2.74032	1.65539
	664.353	3.07213	1.75275
	666.252	3.33518	1.82625
	668.15	4.07787	2.01937
	670.049	6.09339	2.46848
	671.948	9.50103	3.08237
	673.846	14.3094	3.78278
	675.745	21.1707	4.60117
	677.644	30.3616	5.51013
	679.542	42.2418	6.49937
	681.441	54.8236	7.4043
	683.339	66.2378	8.13866
	685.238	72.453	8.51193
	687.137	72.9353	8.54022
	689.035	67.3418	8.2062
	690.934	59.1201	7.68896
	692.833	51.7424	7.19322
	694.731	48.0205	6.92968
	696.63	51.0313	7.14362
	698.528	60.211	7.75958
	700.427	78.5927	8.86525
	702.326	107.387	10.3628
	704.224	144.185	12.0077
	706.123	189.33	13.7597
	708.021	232.446	15.2462
	709.92	258.617	16.0816
	711.819	262.746	16.2094
	713.717	236.634	15.3829
	715.616	199.377	14.1201
	717.515	156.48	12.5092
	719.413	119.46	10.9298
	721.312	88.2006	9.39151
	723.21	63.6892	7.98055
	725.109	45.5512	6.74917
	727.008	32.9659	5.7416
	728.906	24.7203	4.97195
	730.805	19.0179	4.36095
	732.704	15.5572	3.94426
	734.602	12.9677	3.60107
	736.501	10.7179	3.27382
	738.399	8.44723	2.90641
	740.298	7.18208	2.67994
	742.197	6.31427	2.51282
	744.095	5.3885	2.32131
	745.994	4.02817	2.00703
	747.892	3.24515	1.80143
	749.791	2.59492	1.61087
	751.69	2.09446	1.44722
	753.588	1.60715	1.26774
	755.487	1.65187	1.28525
	757.386	1.9118	1.38268
	759.284	1.64565	1.28283
	761.183	1.12696	1.06159
	763.081	0.51718	0.719152
	764.98	0.176309	0.419891
	766.879	-0.087975	0.296606
	768.777	0.0308801	0.175727
	770.676	0.0576737	0.240153
	772.575	0.180321	0.424642
	774.473	0.173234	0.416214
	776.372	0.777873	0.881971
	778.27	0.582761	0.763388
	780.169	0.35426	0.595197
	782.068	0.123889	0.351979
	783.966	0.712724	0.84423
	785.865	1.03526	1.01748
	787.764	1.11551	1.05618
	789.662	0.988427	0.994197
	791.561	1.05043	1.02491
	793.459	0.694774	0.833531
	795.358	0.626536	0.79154
	797.257	0.7544	0.868562
	799.155	0.596157	0.772112
	801.054	0.492029	0.701447
	802.952	0.352405	0.593637
	804.851	0.234	0.483736
	806.75	0.386184	0.621437
	808.648	0.809532	0.89974
	810.547	0.757238	0.870194
	812.446	0.424232	0.651331
	814.344	0.107683	0.328151
	816.243	-0.179903	0.42415
	818.141	-0.00241546	0.0491473
	820.04	0.230131	0.47972
	821.939	0.848251	0.921006
	823.837	1.47594	1.21488
	825.736	1.44789	1.20328
	827.635	1.01878	1.00934
	829.533	1.15086	1.07278
	831.432	1.2537	1.11969
	833.33	1.31975	1.14881
	835.229	0.364347	0.603612
	837.128	-0.126911	0.356246
	839.026	-0.0221322	0.148769
	840.925	0.356263	0.596878
	842.823	0.989179	0.994575
	844.722	1.04067	1.02013
	846.621	1.35318	1.16326
	848.519	1.48976	1.22056
	850.418	1.53892	1.24053
	852.317	1.19405	1.09273
	854.215	1.11234	1.05467
	856.114	1.47529	1.21461
	858.012	1.10384	1.05064
	859.911	0.821862	0.906566
	861.81	0.657754	0.81102
	863.708	0.72805	0.853259
	865.607	0.548046	0.740302
	867.506	-0.101447	0.318507
	869.404	-0.270101	0.519713
	871.303	-0.555308	0.74519
	873.201	-0.374385	0.61187
	875.1	-0.0880615	0.296752
	876.999	0.134444	0.366666
	878.897	-0.154115	0.392575
	880.796	-0.542748	0.736715
	882.694	-0.965932	0.982818
	884.593	-1.28696	1.13444
	886.492	-1.01542	1.00768
	888.39	-1.02984	1.01481
	890.289	-0.862418	0.928665
	892.188	-0.556471	0.74597
	894.086	0.307282	0.55433
	895.985	0.932733	0.965781
	897.883	1.63179	1.27741
	899.782	2.19157	1.4804
	901.681	3.23982	1.79995
	903.579	4.15055	2.03729
	905.478	5.40702	2.3253
	907.377	6.78134	2.6041
	909.275	8.00934	2.83008
	911.174	8.96848	2.99474
	913.072	10.5662	3.25057
	914.971	12.4577	3.52954
	916.87	15.0772	3.88294
	918.768	18.9525	4.35345
	920.667	25.6547	5.06504
	922.565	37.1083	6.09166
	924.464	55.4135	7.44403
	926.363	87.1052	9.33301
	928.261	138.026	11.7484
	930.16	213.326	14.6057
	932.059	313.422	17.7037
	933.957	435.698	20.8734
	935.856	558.256	23.6274
	937.754	682.898	26.1323
	939.653	768.997	27.7308
	941.552	807.307	28.4131
	943.45	803.519	28.3464
	945.349	761.847	27.6016
	947.248	714.685	26.7336
	949.146	656.172	25.6159
	951.045	598.812	24.4706
	952.943	562.356	23.714
	954.842	550.928	23.4719
	956.741	579.947	24.0821
	958.639	634.528	25.1898
	960.538	707.574	26.6003
	962.436	772.49	27.7937
	964.335	825.855	28.7377
	966.234	860.543	29.335
	968.132	880.096	29.6664
	970.031	898.918	29.982
	971.93	897.042	29.9507
	973.828	869.153	29.4814
	975.727	814.485	28.5392
	977.625	738.025	27.1666
	979.524	652.984	25.5536
	981.423	568.471	23.8426
	983.321	492.882	22.2009
	985.22	421.764	20.5369
	987.119	360.75	18.9934
	989.017	307.563	17.5375
	990.916	262.314	16.1961
	992.814	224.107	14.9702
	994.713	193.474	13.9095
	996.612	166.639	12.9089
	998.51	147.113	12.129
	1000.41	127.709	11.3008
	1002.31	111.492	10.559
	1004.21	95.0972	9.75178
	1006.1	80.5656	8.97584
	1008	65.494	8.09284
	1009.9	54.852	7.40621
	1011.8	43.3614	6.58494
	1013.7	34.9043	5.90799
	1015.6	27.2665	5.22174
	1017.5	20.2727	4.50253
	1019.4	15.2503	3.90517
	1021.29	10.1282	3.18249
	1023.19	6.6445	2.57769
	1025.09	3.82438	1.9556
	1026.99	1.9985	1.41368
	1028.89	0.854896	0.924606
	1030.79	-0.725522	0.851776
	1032.69	-1.69479	1.30184
	1034.58	-1.98181	1.40777
	1036.48	-1.95751	1.39911
	1038.38	-1.66488	1.2903
	1040.28	-1.1307	1.06335
	1042.18	0.0777796	0.27889
	1044.08	0.8288	0.910385
	1045.98	0.80587	0.897702
	1047.87	0.388917	0.623632
	1049.77	-0.36003	0.600025
	1051.67	-1.06644	1.03269
	1053.57	-1.11018	1.05365
	1055.47	-0.466859	0.683271
	1057.37	0.293349	0.541617
	1059.27	2.02805	1.4241
	1061.16	3.70649	1.92523
	1063.06	5.87477	2.42379
	1064.96	7.68469	2.77213
	1066.86	10.0121	3.16419
	1068.76	11.3214	3.36474
	1070.66	12.0446	3.47053
	1072.56	13.0446	3.61173
	1074.46	13.4059	3.6614
	1076.35	14.8047	3.84768
	1078.25	16.209	4.02604
	1080.15	18.2085	4.26714
	1082.05	20.6315	4.54219
	1083.95	22.9561	4.79125
	1085.85	26.1688	5.11555
	1087.75	30.1146	5.48768
	1089.64	34.346	5.86054
	1091.54	38.8466	6.23271
	1093.44	43.6213	6.60464
	1095.34	47.9163	6.92216
	1097.24	52.0515	7.21467
	1099.14	56.0941	7.4896
	1101.04	60.1963	7.75863
	1102.93	63.9824	7.9989
	1104.83	67.7831	8.23305
	1106.73	72.7977	8.53216
	1108.63	77.9804	8.83065
	1110.53	83.2308	9.12309
	1112.43	87.1443	9.33511
	1114.33	90.4583	9.51096
	1116.22	93.5966	9.67454
	1118.12	95.224	9.75828
	1120.02	96.0235	9.79916
	1121.92	93.9266	9.69158
	1123.82	92.2234	9.6033
	1125.72	90.3182	9.50359
	1127.62	87.6477	9.36203
	1129.51	84.982	9.21857
	1131.41	81.5334	9.02958
	1133.31	77.7945	8.82012
	1135.21	74.8927	8.65405
	1137.11	71.3218	8.44523
	1139.01	67.9811	8.24507
	1140.91	63.4807	7.96748
	1142.81	58.5905	7.65444
	1144.7	54.1897	7.36137
	1146.6	49.1397	7.00997
	1148.5	43.6649	6.60794
	1150.4	38.178	6.17883
	1152.3	33.516	5.7893
	1154.2	29.1317	5.39738
	1156.1	25.3406	5.03394
	1157.99	20.7361	4.55369
	1159.89	18.1629	4.26179
	1161.79	15.938	3.99224
	1163.69	14.2141	3.77016
	1165.59	13.1566	3.6272
	1167.49	11.3124	3.3634
	1169.39	11.0632	3.32614
	1171.28	10.8227	3.28979
	1173.18	10.5635	3.25016
	1175.08	10.6542	3.26407
	1176.98	10.395	3.22413
	1178.88	9.7946	3.12963
	1180.78	8.55717	2.92526
	1182.68	6.90055	2.62689
	1184.57	5.32049	2.30662
	1186.47	3.47671	1.86459
	1188.37	2.08827	1.44508
	1190.27	0.998036	0.999017
	1192.17	-0.257005	0.506957
	1194.07	-1.06488	1.03193
	1195.97	-2.06105	1.43564
	1197.87	-1.53834	1.2403
	1199.76	-1.54171	1.24166
	1201.66	0.174043	0.417184
	1203.56	2.20404	1.4846
	1205.46	5.01605	2.23965
	1207.36	9.68952	3.1128
	1209.26	14.8494	3.85349
	1211.16	23.5435	4.85216
	1213.05	34.1022	5.83971
	1214.95	48.6038	6.97164
	1216.85	69.0328	8.3086
	1218.75	90.4271	9.50931
	1220.65	124.752	11.1692
	1222.55	159.081	12.6127
	1224.45	202.141	14.2176
	1226.34	256.929	16.029
	1228.24	303.397	17.4183
	1230.14	346.716	18.6203
	1232.04	398.984	19.9746
	1233.94	404.249	20.1059
	1235.84	393.512	19.8371
	1237.74	358.147	18.9248
	1239.63	312.83	17.687
	1241.53	245.564	15.6705
	1243.43	207.282	14.3973
	1245.33	168.188	12.9687
	1247.23	141.16	11.8811
	1249.13	119.606	10.9365
	1251.03	107.714	10.3785
	1252.93	99.185	9.95917
	1254.82	93.9345	9.69198
	1256.72	87.9313	9.37717
	1258.62	81.6671	9.03698
	1260.52	78.3923	8.85394
	1262.42	74.5875	8.63641
	1264.32	72.4099	8.5094
	1266.22	68.8797	8.29938
	1268.11	67.5349	8.21796
	1270.01	67.4712	8.21409
	1271.91	67.1411	8.19397
	1273.81	69.0197	8.30781
	1275.71	69.3711	8.32893
	1277.61	72.1074	8.4916
	1279.51	74.6693	8.64114
	1281.4	77.4986	8.80333
	1283.3	81.7698	9.04267
	1285.2	83.6031	9.14347
	1287.1	88.2305	9.39311
	1289	90.3055	9.50292
	1290.9	94.7882	9.73592
	1292.8	98.1289	9.906
	1294.69	101.165	10.0581
	1296.59	103.487	10.1729
	1298.49	103.184	10.158
	1300.39	104.959	10.2449
	1302.29	104.645	10.2296
	1304.19	105.193	10.2564
	1306.09	104.447	10.2199
	1307.99	104.619	10.2284
	1309.88	104.41	10.2181
	1311.78	105.714	10.2817
	1313.68	105.574	10.2749
	1315.58	106.096	10.3003
	1317.48	106.139	10.3024
	1319.38	105.715	10.2818
	1321.28	106.236	10.3071
	1323.17	105.844	10.2881
	1325.07	106.533	10.3215
	1326.97	104.851	10.2397
	1328.87	103.199	10.1587
	1330.77	100.275	10.0137
	1332.67	97.4601	9.87219
	1334.57	93.7766	9.68383
	1336.46	89.577	9.46451
	1338.36	84.2049	9.17632
	1340.26	79.161	8.89725
	1342.16	74.2877	8.61903
	1344.06	69.3482	8.32756
	1345.96	64.611	8.0381
	1347.86	59.4094	7.70775
	1349.75	54.3199	7.3702
	1351.65	49.5158	7.03675
	1353.55	45.4435	6.74118
	1355.45	41.7863	6.46424
	1357.35	38.0251	6.16645
	1359.25	33.9313	5.82505
	1361.15	30.2691	5.50174
	1363.05	26.9027	5.18678
	1364.94	23.5875	4.8567
	1366.84	20.6369	4.54279
	1368.74	17.4756	4.18038
	1370.64	14.4003	3.79478
	1372.54	11.6579	3.41436
	1374.44	9.15582	3.02586
	1376.34	6.78037	2.60391
	1378.23	4.35149	2.08602
	1380.13	1.7985	1.34108
	1382.03	-0.326395	0.57131
	1383.93	-1.53294	1.23812
	1385.83	-2.2566	1.5022
	1387.73	-2.51948	1.58729
	1389.63	-2.6043	1.61378
	1391.52	-2.38535	1.54446
	1393.42	-1.61888	1.27235
	1395.32	-0.80333	0.896287
	1397.22	0.370692	0.608845
	1399.12	2.08543	1.4441
	1401.02	3.69562	1.9224
	1402.92	5.02809	2.24234
	1404.81	6.35171	2.52026
	1406.71	8.37583	2.8941
	1408.61	10.4682	3.23545
	1410.51	13.0665	3.61476
	1412.41	15.0681	3.88176
	1414.31	17.1601	4.14248
	1416.21	19.1488	4.37593
	1418.11	21.3202	4.61738
	1420	22.7882	4.77369
	1421.9	23.5676	4.85465
	1423.8	23.3418	4.83134
	1425.7	22.0559	4.69637
	1427.6	20.2014	4.4946
	1429.5	18.4015	4.2897
	1431.4	16.7671	4.09476
	1433.29	14.821	3.84981
	1435.19	12.5964	3.54914
	1437.09	10.8866	3.29949
	1438.99	8.77872	2.96289
	1440.89	7.10152	2.66487
	1442.79	5.4781	2.34053
	1444.69	4.51715	2.12536
	1446.58	3.3203	1.82217
	1448.48	2.42236	1.55639
	1450.38	1.22966	1.1089
	1452.28	0.899904	0.948633
	1454.18	0.407036	0.637994
	1456.08	-0.166309	0.40781
	1457.98	-0.393565	0.627347
	1459.87	-0.583751	0.764036
	1461.77	-0.42558	0.652365
	1463.67	-0.795009	0.891633
	1465.57	-0.73696	0.858464
	1467.47	-0.44988	0.670731
	1469.37	0.0268803	0.163952
	1471.27	-0.0476917	0.218384
	1473.17	0.16087	0.401086
	1475.06	-0.125904	0.354829
	1476.96	-0.334085	0.578001
	1478.86	-0.492428	0.701732
	1480.76	-0.493905	0.702783
	1482.66	-0.56192	0.749613
	1484.56	-0.490597	0.700426
	1486.46	-0.420391	0.648376
	1488.35	-0.460852	0.678861
	1490.25	-0.705333	0.839841
	1492.15	-0.920304	0.959325
	1494.05	-0.527993	0.726631
	1495.95	0.198321	0.445332
	1497.85	0.401882	0.633942
	1499.75	0.504151	0.710036
	1501.64	0.114734	0.338725
	1503.54	0.0396814	0.199202
	1505.44	0.020025	0.14151
	1507.34	0.394333	0.62796
	1509.24	0.712934	0.844354
	1511.14	1.25585	1.12065
	1513.04	1.39983	1.18314
	1514.93	1.9932	1.41181
	1516.83	2.38861	1.54551
	1518.73	2.85738	1.69038
	1520.63	3.31269	1.82008
	1522.53	3.65087	1.91072
	1524.43	3.62305	1.90343
	1526.33	3.36257	1.83373
	1528.23	3.11872	1.76599
	1530.12	3.34943	1.83015
	1532.02	3.00084	1.73229
	1533.92	2.43422	1.5602
	1535.82	1.99168	1.41127
	1537.72	1.9952	1.41252
	1539.62	1.80562	1.34373
	1541.52	1.30685	1.14317
	1543.41	0.603602	0.776918
	1545.31	0.536847	0.732698
	1547.21	0.851286	0.922652
	1549.11	0.65775	0.811018
	1551.01	0.157602	0.396992
	1552.91	-0.265731	0.515491
	1554.81	-0.108703	0.329701
	1556.7	0.113278	0.336568
	1558.6	-0.181628	0.426179
	1560.5	-0.407037	0.637994
	1562.4	-0.234946	0.484713
	1564.3	-0.194994	0.441582
	1566.2	0.132169	0.363551
	1568.1	-0.0395533	0.19888
	1569.99	-0.181821	0.426405
	1571.89	0.0182527	0.135103
	1573.79	0.154974	0.393667
	1575.69	0.421923	0.649556
	1577.59	0.684532	0.827365
	1579.49	1.05094	1.02515
	1581.39	1.02311	1.01149
	1583.29	0.651959	0.80744
	1585.18	0.4923	0.701641
	1587.08	0.790762	0.889248
	1588.98	1.60654	1.26749
	1590.88	1.99804	1.41352
	1592.78	2.25628	1.50209
	1594.68	2.26146	1.50381
	1596.58	2.08304	1.44327
	1598.47	2.41868	1.55521
	1600.37	2.96233	1.72114
	1602.27	3.6724	1.91635
	1604.17	4.24665	2.06074
	1606.07	4.97335	2.2301
	1607.97	5.52443	2.35041
	1609.87	5.87874	2.42461
	1611.76	6.1178	2.47342
	1613.66	6.57042	2.56328
	1615.56	7.10184	2.66493
	1617.46	7.35589	2.71217
	1619.36	7.84412	2.80074
	1621.26	8.53464	2.92141
	1623.16	9.33671	3.0556
	1625.05	10.0342	3.16768
	1626.95	10.4215	3.22824
	1628.85	10.4561	3.23359
	1630.75	10.9017	3.30178
	1632.65	11.7725	3.4311
	1634.55	12.5771	3.54641
	1636.45	12.4921	3.53441
	1638.34	12.3655	3.51647
	1640.24	12.6418	3.55553
	1642.14	13.0296	3.60965
	1644.04	13.0279	3.60942
	1645.94	13.3944	3.65983
	1647.84	14.0313	3.74584
	1649.74	14.2309	3.77239
	1651.64	13.9207	3.73104
	1653.53	13.8024	3.71516
	1655.43	13.9951	3.741
	1657.33	14.1942	3.76753
	1659.23	15.1523	3.8926
	1661.13	17.0071	4.12397
	1663.03	19.0709	4.36702
	1664.93	21.3907	4.62501
	1666.82	23.8347	4.88208
	1668.72	27.4757	5.24172
	1670.62	32.1866	5.67332
	1672.52	37.124	6.09294
	1674.42	42.5674	6.52437
	1676.32	48.8527	6.98947
	1678.22	56.201	7.49673
	1680.11	65.1052	8.06878
	1682.01	72.9184	8.53922
	1683.91	78.1462	8.84003
	1685.81	79.1961	8.89922
	1687.71	74.0369	8.60447
	1689.61	64.5362	8.03344
	1691.51	52.6007	7.25263
	1693.4	43.0951	6.56469
	1695.3	33.918	5.82391
	1697.2	27.1088	5.20661
	1699.1	21.7068	4.65905
	1701	17.1324	4.13913
	1702.9	13.6693	3.6972
	1704.8	10.7304	3.27572
	1706.7	9.21376	3.03542
	1708.59	8.21542	2.86626
	1710.49	7.44775	2.72906
	1712.39	6.70573	2.58954
	1714.29	6.24458	2.49892
	1716.19	5.72634	2.39298
	1718.09	4.82487	2.19656
	1719.99	3.72424	1.92983
	1721.88	2.76903	1.66404
	1723.78	2.25527	1.50176
	1725.68	1.67771	1.29527
	1727.58	1.10265	1.05007
	1729.48	0.593823	0.770599
	1731.38	-0.0515023	0.226941
	1733.28	-0.386235	0.621478
	1735.17	-0.691972	0.831849
	1737.07	-0.59203	0.769435
	1738.97	-0.421366	0.649127
	1740.87	-0.251097	0.501096
	1742.77	-0.257806	0.507746
	1744.67	-0.415866	0.644877
	1746.57	-0.748138	0.86495
	1748.46	-0.794862	0.89155
	1750.36	-0.722283	0.849872
	1752.26	-0.419073	0.647358
	1754.16	-0.0692508	0.263155
	1756.06	0.224597	0.473917
	1757.96	0.261998	0.511858
	1759.86	0.103889	0.322318
	1761.76	0.197522	0.444434
	1763.65	0.72775	0.853083
	1765.55	0.888252	0.942471
	1767.45	1.38186	1.17553
	1769.35	1.90006	1.37843
	1771.25	2.70794	1.64558
	1773.15	3.38188	1.83899
	1775.05	3.72532	1.93011
	1776.94	4.15304	2.0379
	1778.84	4.69925	2.16777
	1780.74	5.5388	2.35347
	1782.64	6.13347	2.47658
	1784.54	6.63258	2.57538
	1786.44	6.71496	2.59132
	1788.34	6.64426	2.57765
	1790.23	6.90986	2.62866
	1792.13	7.53149	2.74436
	1794.03	8.28835	2.87895
	1795.93	9.62814	3.10292
	1797.83	11.2808	3.35868
	1799.73	13.5679	3.68347
	1801.63	16.1638	4.02042
	1803.52	19.3806	4.40234
	1805.42	22.9074	4.78616
	1807.32	27.2362	5.21883
	1809.22	31.9992	5.65679
	1811.12	37.5628	6.12885
	1813.02	43.6906	6.60988
	1814.92	50.6683	7.11817
	1816.82	58.9481	7.67776
	1818.71	67.6991	8.22795
	1820.61	76.9848	8.7741
	1822.51	85.2287	9.23194
	1824.41	92.0433	9.59392
	1826.31	97.015	9.84962
	1828.21	99.4534	9.97263
	1830.11	99.9737	9.99868
	1832	97.671	9.88287
	1833.9	92.9826	9.64275
	1835.8	86.3353	9.29168
	1837.7	78.3684	8.85259
	1839.6	69.7827	8.35361
	1841.5	61.0491	7.81339
	1843.4	53.2142	7.29481
	1845.29	46.9071	6.84888
	1847.19	41.2137	6.41979
	1849.09	36.5724	6.04751
	1850.99	32.9949	5.74412
	1852.89	30.201	5.49555
	1854.79	27.8621	5.27845
	1856.69	25.8678	5.08604
	1858.58	24.1961	4.91895
	1860.48	22.8197	4.777
	1862.38	21.2356	4.60821
	1864.28	19.983	4.47024
	1866.18	18.2578	4.27291
	1868.08	16.5284	4.06551
	1869.98	14.9462	3.86603
	1871.88	13.9907	3.74041
	1873.77	12.4223	3.52453
	1875.67	10.8166	3.28885
	1877.57	9.91272	3.14845
	1879.47	9.37268	3.06148
	1881.37	9.24911	3.04123
	1883.27	8.79726	2.96602
	1885.17	8.29633	2.88033
	1887.06	7.80004	2.79285
	1888.96	7.64486	2.76493
	1890.86	7.79448	2.79186
	1892.76	8.15441	2.85559
	1894.66	8.35584	2.89065
	1896.56	8.89719	2.98282
	1898.46	9.39998	3.06594
	1900.35	9.86784	3.14131
	1902.25	10.4064	3.2259
	1904.15	11.031	3.32129
	1906.05	11.9135	3.45159
	1907.95	12.2448	3.49925
	1909.85	12.622	3.55275
	1911.75	13.1979	3.63289
	1913.64	14.2162	3.77044
	1915.54	14.9749	3.86975
	1917.44	16.387	4.04809
	1919.34	17.3914	4.1703
	1921.24	19.0326	4.36264
	1923.14	20.9522	4.57736
	1925.04	23.7858	4.87707
	1926.94	26.0786	5.10672
	1928.83	28.4481	5.33368
	1930.73	30.1851	5.49409
	1932.63	30.9575	5.56395
	1934.53	30.5852	5.53039
	1936.43	29.6619	5.44627
	1938.33	28.6275	5.35047
	1940.23	26.523	5.15005
	1942.12	23.5417	4.85197
	1944.02	20.4678	4.52413
	1945.92	17.5124	4.18478
	1947.82	15.0843	3.88385
	1949.72	12.3267	3.51094
	1951.62	9.93733	3.15235
	1953.52	7.68555	2.77228
	1955.41	6.17404	2.48476
	1957.31	4.76429	2.18273
	1959.21	3.21558	1.7932
	1961.11	2.36359	1.5374
	1963.01	1.61609	1.27125
	1964.91	1.001	1.0005
	1966.81	0.379116	0.615724
	1968.7	0.404438	0.635954
	1970.6	0.422882	0.650294
	1972.5	1.27411	1.12876
	1974.4	2.20458	1.48478
	1976.3	3.09592	1.75952
	1978.2	4.16072	2.03978
	1980.1	5.875	2.42384
	1982	7.96514	2.82226
	1983.89	10.2606	3.20322
	1985.79	12.8781	3.58861
	1987.69	16.3509	4.04363
	1989.59	20.1885	4.49316
	1991.49	24.6025	4.96009
	1993.39	29.4198	5.42401
	1995.29	34.7837	5.89777
	1997.18	39.8826	6.31527
	1999.08	44.6003	6.67835
	2000.98	47.8958	6.92068
	2002.88	50.367	7.09697
	2004.78	51.9245	7.20587
	2006.68	53.0948	7.28662
	2008.58	53.2771	7.29912
	2010.47	52.5421	7.2486
	2012.37	50.8691	7.13226
	2014.27	48.9438	6.99598
	2016.17	46.8813	6.84699
	2018.07	45.0139	6.70924
	2019.97	43.0654	6.56242
	2021.87	40.8469	6.39116
	2023.76	38.6345	6.21567
	2025.66	36.9849	6.08152
	2027.56	35.8024	5.98351
	2029.46	35.2273	5.93526
	2031.36	34.8051	5.89958
	2033.26	34.3999	5.86515
	2035.16	34.0323	5.83372
	2037.06	33.429	5.78179
	2038.95	32.9193	5.73753
	2040.85	32.7242	5.72051
	2042.75	32.4692	5.69818
	2044.65	32.4058	5.6926
	2046.55	32.1712	5.67197
	2048.45	32.4974	5.70065
	2050.35	32.0814	5.66404
	2052.24	31.2907	5.59381
	2054.14	30.8627	5.55542
	2056.04	30.2835	5.50304
	2057.94	28.9141	5.37718
	2059.84	27.0431	5.2003
	2061.74	25.6745	5.067
	2063.64	24.4107	4.94072
	2065.53	22.7966	4.77458
	2067.43	20.9957	4.58211
	2069.33	19.1922	4.38089
	2071.23	18.2305	4.26972
	2073.13	17.2773	4.15659
	2075.03	16.4994	4.06195
	2076.93	16.0331	4.00413
	2078.82	15.2091	3.89989
	2080.72	14.594	3.82022
	2082.62	13.8562	3.72239
	2084.52	13.5902	3.68648
	2086.42	13.099	3.61925
	2088.32	12.6878	3.56199
	2090.22	12.5441	3.54176
	2092.12	12.6477	3.55636
	2094.01	12.2745	3.5035
	2095.91	12.0243	3.46761
	2097.81	11.9785	3.46099
	2099.71	11.8447	3.44161
	2101.61	11.234	3.35172
	2103.51	10.644	3.26251
	2105.41	10.3697	3.22021
	2107.3	9.96205	3.15627
	2109.2	10.0548	3.17092
	2111.1	9.92081	3.14973
	2113	9.53382	3.08769
	2114.9	8.85032	2.97495
	2116.8	8.33023	2.88621
	2118.7	7.94825	2.81926
	2120.59	7.79376	2.79173
	2122.49	7.38794	2.71808
	2124.39	7.11622	2.66763
	2126.29	6.79895	2.60748
	2128.19	6.98822	2.64352
	2130.09	6.80376	2.6084
	2131.99	6.68225	2.585
	2133.88	6.42951	2.53565
	2135.78	6.06518	2.46276
	2137.68	5.28831	2.29963
	2139.58	5.03992	2.24498
	2141.48	4.83314	2.19844
	2143.38	4.54483	2.13186
	2145.28	3.88896	1.97204
	2147.17	3.56562	1.88828
	2149.07	3.40818	1.84613
	2150.97	3.29111	1.81414
	2152.87	2.8115	1.67675
	2154.77	2.39036	1.54608
	2156.67	1.80709	1.34428
	2158.57	1.46363	1.2098
	2160.47	1.40648	1.18595
	2162.36	1.48266	1.21764
	2164.26	1.44038	1.20016
	2166.16	1.17137	1.0823
	2168.06	0.893112	0.945046
	2169.96	0.445597	0.66753
	2171.86	0.438813	0.66243
	2173.76	0.508676	0.713215
	2175.65	0.501483	0.708155
	2177.55	0.466066	0.682691
	2179.45	0.440748	0.663889
	2181.35	-0.0936799	0.306072
	2183.25	-0.636017	0.797507
	2185.15	-0.964769	0.982226
	2187.05	-1.03535	1.01752
	2188.94	-0.876421	0.936173
	2190.84	-0.668846	0.81783
	2192.74	-0.611011	0.781672
	2194.64	-0.382816	0.618721
	2196.54	0.0297129	0.172374
	2198.44	0.303755	0.55114
	2200.34	0.583933	0.764155
	2202.23	1.21554	1.10251
	2204.13	2.06269	1.43621
	2206.03	3.15317	1.77572
	2207.93	4.36464	2.08917
	2209.83	6.30216	2.51041
	2211.73	8.35557	2.8906
	2213.63	10.6794	3.26793
	2215.53	12.8101	3.57912
	2217.42	14.4601	3.80265
	2219.32	15.3892	3.9229
	2221.22	15.3132	3.91321
	2223.12	15.0051	3.87364
	2225.02	14.188	3.76669
	2226.92	13.0625	3.6142
	2228.82	11.3903	3.37495
	2230.71	9.26796	3.04433
	2232.61	7.32751	2.70694
	2234.51	5.64818	2.37659
	2236.41	4.02648	2.00661
	2238.31	2.81468	1.6777
	2240.21	2.0811	1.4426
	2242.11	1.53163	1.23759
	2244	1.18493	1.08855
	2245.9	0.807767	0.898759
	2247.8	0.617361	0.785723
	2249.7	0.420455	0.648425
	2251.6	0.202146	0.449607
	2253.5	-0.182145	0.426785
	2255.4	-0.419689	0.647834
	2257.29	-0.234719	0.484478
	2259.19	-0.111466	0.333865
	2261.09	-0.0571268	0.239012
	2262.99	-0.156083	0.395074
	2264.89	-0.208003	0.456074
	2266.79	0.0167166	0.129293
	2268.69	0.33568	0.579379
	2270.59	0.384181	0.619823
	2272.48	0.354923	0.595755
	2274.38	0.108038	0.328691
	2276.28	0.145771	0.381799
	2278.18	0.151073	0.388681
	2280.08	0.269326	0.518967
	2281.98	0.124072	0.352239
	2283.88	0.0970322	0.3115
	2285.77	0.416119	0.645073
	2287.67	0.47487	0.689108
	2289.57	0.274295	0.523731
	2291.47	0.00654124	0.0808779
	2293.37	0.114183	0.33791
	2295.27	0.0433886	0.208299
	2297.17	0.0729247	0.270046
	2299.06	0.104215	0.322823
	2300.96	0.356357	0.596956
	2302.86	0.479927	0.692767
	2304.76	0.430172	0.655875
	2306.66	0.282784	0.531775
	2308.56	-0.0801438	0.283097
	2310.46	-0.223376	0.472626
	2312.35	-0.0958668	0.309624
	2314.25	-0.0366905	0.191548
	2316.15	0.0373082	0.193153
	2318.05	0.0253161	0.15911
	2319.95	-0.126925	0.356266
	2321.85	-0.0451212	0.212417
	2323.75	0.0571253	0.239009
	2325.65	0.203781	0.451422
	2327.54	0.129293	0.359574
	2329.44	0.232497	0.482179
	2331.34	0.142968	0.378111
	2333.24	0.0557869	0.236192
	2335.14	0.154609	0.393203
	2337.04	0.374068	0.611611
	2338.94	0.301071	0.548699
	2340.83	0.0421532	0.205313
	2342.73	-0.0400004	0.200001
	2344.63	0.0918141	0.303008
	2346.53	0.110898	0.333013
	2348.43	0.204835	0.452587
	2350.33	0.369172	0.607596
	2352.23	0.489783	0.699845
	2354.12	0.273253	0.522736
	2356.02	0.383229	0.619055
	2357.92	0.348905	0.590682
	2359.82	0.10266	0.320407
	2361.72	-0.0926051	0.304311
	2363.62	-0.141134	0.375679
	2365.52	0.0983875	0.313668
	2367.41	0.250832	0.500831
	2369.31	0.367955	0.606593
	2371.21	0.55584	0.745547
	2373.11	0.679298	0.824196
	2375.01	0.737673	0.858879
	2376.91	0.584867	0.764766
	2378.81	0.330965	0.575296
	2380.71	0.155978	0.394941
	2382.6	-0.0423146	0.205705
	2384.5	0.0548508	0.234203
	2386.4	0.356376	0.596972
	2388.3	0.28007	0.529216
	2390.2	0.053097	0.230428
	2392.1	0.147325	0.383829
	2394	0.428943	0.654938
	2395.89	0.353592	0.594636
	2397.79	0.0134241	0.115862
	2399.69	-0.141528	0.376202
	2401.59	-0.056369	0.237422
	2403.49	-0.0528262	0.229839
	2405.39	-0.119038	0.345019
	2407.29	0.027221	0.164988
	2409.18	0.148228	0.385004
	2411.08	0.0324026	0.180007
	2412.98	0.0310973	0.176344
	2414.88	-0.00573978	0.0757613
	2416.78	0.0572771	0.239326
	2418.68	0.0330794	0.181877
	2420.58	-0.0444037	0.210722
	2422.47	-0.159841	0.399802
	2424.37	0.102014	0.319397
