Generated file C:/Users/didvk/OneDrive - University of Florida/UF_Isaiah_06-16-2020-Tue/Analysis/Re0.1Mo0.9B2/Re0.1Mo0.9B2_HPXRD_run2_300_20220710 - Copy/mask&dat&fxye_4position/16_ReMoB2_74p0GPa_645psi_P1_C4_D1w_114.fxye using DIOPTAS
# == pyFAI calibration ==
# Distance Sample to Detector: 0.2103851508954585 m
# PONI: 8.889e-02, 8.665e-02 m
# Rotations: 0.008634 -0.000915 0.000000 rad
# 
# == Fit2d calibration ==
# Distance Sample-beamCenter: 210.393 mm
# Center: x=493.236, y=515.685 pix
# Tilt: 0.497 deg  TiltPlanRot: -173.953 deg
# 
# Detector Detector	 Spline= None	 PixelSize= 1.720e-04, 1.720e-04 m
#    Detector has a mask: False 
#    Detector has a dark current: False 
#    detector has a flat field: False 
# 
# Wavelength: 4.133e-11 m
# Mask applied: None
# Dark current applied: None
# Flat field applied: None
# Polarization factor: None
# Normalization factor: None
BANK	1	1129	1129 CONS	282.731	1.89862 0.4133 0.0 FXYE
	282.731	0.248826	0.498825
	284.629	-0.0163786	0.127979
	286.528	0.168945	0.411029
	288.427	0.352635	0.593831
	290.325	0.498632	0.706139
	292.224	0.754497	0.868618
	294.122	0.484788	0.696267
	296.021	0.222584	0.471788
	297.92	0.337855	0.581253
	299.818	0.39804	0.630904
	301.717	1.21338	1.10154
	303.616	1.25606	1.12074
	305.514	1.75659	1.32536
	307.413	1.60678	1.26759
	309.311	1.28164	1.13209
	311.21	0.760738	0.872203
	313.109	0.814121	0.902287
	315.007	0.456695	0.675792
	316.906	0.374689	0.612119
	318.805	0.284867	0.533729
	320.703	1.138	1.06677
	322.602	0.971126	0.985457
	324.5	0.751263	0.866755
	326.399	0.69433	0.833265
	328.298	1.46541	1.21054
	330.196	1.65252	1.2855
	332.095	1.96251	1.40089
	333.993	2.64371	1.62595
	335.892	3.36203	1.83358
	337.791	3.71708	1.92797
	339.689	3.65771	1.91251
	341.588	3.63165	1.90569
	343.487	4.71381	2.17113
	345.385	6.69116	2.58673
	347.284	10.6931	3.27003
	349.182	16.2015	4.02511
	351.081	24.6149	4.96134
	352.98	34.2067	5.84865
	354.878	43.79	6.6174
	356.777	46.5907	6.82574
	358.676	42.078	6.48675
	360.574	31.1489	5.58112
	362.473	20.4969	4.52735
	364.371	12.6558	3.5575
	366.27	7.96699	2.82259
	368.169	5.27173	2.29603
	370.067	4.28425	2.06984
	371.966	3.39198	1.84173
	373.864	1.96696	1.40249
	375.763	1.38554	1.17709
	377.662	1.05214	1.02574
	379.56	1.54479	1.24289
	381.459	1.70029	1.30395
	383.358	1.44515	1.20214
	385.256	1.31108	1.14502
	387.155	1.45039	1.20432
	389.053	1.30601	1.14281
	390.952	0.994118	0.997055
	392.851	0.863695	0.929352
	394.749	1.09558	1.0467
	396.648	1.38548	1.17706
	398.547	1.53865	1.24042
	400.445	1.52337	1.23425
	402.344	1.22497	1.10679
	404.242	1.01881	1.00936
	406.141	1.08413	1.04121
	408.04	1.1272	1.0617
	409.938	1.26872	1.12638
	411.837	1.11997	1.05829
	413.735	1.32025	1.14902
	415.634	1.04467	1.02209
	417.533	0.526581	0.725659
	419.431	0.400808	0.633094
	421.33	0.47004	0.685595
	423.229	0.813933	0.902182
	425.127	0.552303	0.743171
	427.026	0.259636	0.509545
	428.924	-0.141131	0.375674
	430.823	0.0409315	0.202315
	432.722	0.251322	0.50132
	434.62	0.128906	0.359035
	436.519	0.59746	0.772956
	438.418	0.675852	0.822102
	440.316	0.854069	0.924159
	442.215	0.486075	0.69719
	444.113	0.311968	0.558541
	446.012	0.0853532	0.292153
	447.911	-0.117637	0.342982
	449.809	-0.0572871	0.239347
	451.708	-0.0484231	0.220052
	453.606	0.616558	0.785212
	455.505	0.800316	0.894604
	457.404	1.41944	1.1914
	459.302	1.55484	1.24693
	461.201	1.68529	1.29819
	463.1	1.2158	1.10263
	464.998	0.702603	0.838214
	466.897	0.553754	0.744147
	468.795	0.185008	0.430126
	470.694	0.326077	0.571031
	472.593	0.740501	0.860524
	474.491	0.946	0.972625
	476.39	1.28606	1.13405
	478.289	0.622366	0.788902
	480.187	0.344245	0.586724
	482.086	-0.0613005	0.247589
	483.984	0.167012	0.408671
	485.883	0.374802	0.612211
	487.782	0.643875	0.802418
	489.68	0.769975	0.877482
	491.579	1.04552	1.02251
	493.478	1.33455	1.15523
	495.376	0.969363	0.984562
	497.275	1.07403	1.03635
	499.173	1.03947	1.01954
	501.072	1.02389	1.01187
	502.971	1.05061	1.02499
	504.869	1.34511	1.15979
	506.768	1.22244	1.10564
	508.666	1.43175	1.19656
	510.565	1.02	1.00995
	512.464	0.339175	0.582388
	514.362	-0.120631	0.347319
	516.261	0.0711437	0.266728
	518.16	0.272217	0.521744
	520.058	0.298492	0.546344
	521.957	0.324776	0.569891
	523.855	0.749066	0.865486
	525.754	1.42251	1.19269
	527.653	1.19196	1.09177
	529.551	1.80655	1.34408
	531.45	1.57153	1.25361
	533.349	1.50846	1.22819
	535.247	0.825437	0.908536
	537.146	0.30956	0.556381
	539.044	0.727197	0.852759
	540.943	0.620715	0.787855
	542.842	0.43093	0.656453
	544.74	0.153924	0.392331
	546.639	-0.117576	0.342894
	548.537	-0.112869	0.335959
	550.436	0.127204	0.356656
	552.335	0.483039	0.69501
	554.233	0.772252	0.878779
	556.132	0.853306	0.923746
	558.031	1.10113	1.04935
	559.929	1.36749	1.1694
	561.828	1.70276	1.3049
	563.726	1.3675	1.1694
	565.625	0.927354	0.962992
	567.524	0.807035	0.898351
	569.422	0.445325	0.667327
	571.321	0.055819	0.23626
	573.22	0.395171	0.628626
	575.118	1.23795	1.11263
	577.017	0.723206	0.850415
	578.915	0.603132	0.776616
	580.814	0.0186431	0.13654
	582.713	0.789065	0.888293
	584.611	1.5259	1.23527
	586.51	1.6614	1.28895
	588.408	1.24922	1.11769
	590.307	0.717788	0.847224
	592.206	0.450109	0.670902
	594.104	0.302893	0.550357
	596.003	0.187372	0.432865
	597.902	0.746138	0.863793
	599.8	1.20843	1.09928
	601.699	1.60306	1.26612
	603.597	1.13559	1.06564
	605.496	0.825642	0.908648
	607.395	0.44955	0.670485
	609.293	0.152625	0.390672
	611.192	-0.0945477	0.307486
	613.091	0.152943	0.391079
	614.989	0.463592	0.680876
	616.888	0.499444	0.706714
	618.786	0.43951	0.662956
	620.685	0.0669921	0.258828
	622.584	-0.0225528	0.150176
	624.482	-0.455006	0.674541
	626.381	-0.333558	0.577545
	628.279	-0.177046	0.420769
	630.178	0.371324	0.609363
	632.077	1.33684	1.15622
	633.975	1.5611	1.24944
	635.874	1.59651	1.26353
	637.773	1.21875	1.10397
	639.671	1.19446	1.09292
	641.57	1.1959	1.09357
	643.468	1.03719	1.01843
	645.367	1.91865	1.38515
	647.266	2.96143	1.72088
	649.164	4.21529	2.05312
	651.063	4.98323	2.23231
	652.962	4.19135	2.04728
	654.86	3.78889	1.94651
	656.759	3.14645	1.77382
	658.657	3.04847	1.74599
	660.556	2.78046	1.66747
	662.455	2.56644	1.60201
	664.353	3.45682	1.85925
	666.252	4.08432	2.02097
	668.15	5.08457	2.2549
	670.049	5.9559	2.44047
	671.948	7.47626	2.73427
	673.846	9.64416	3.1055
	675.745	13.0598	3.61383
	677.644	17.8887	4.22951
	679.542	23.8699	4.88568
	681.441	30.4512	5.51826
	683.339	37.1232	6.09288
	685.238	42.5354	6.52192
	687.137	46.6971	6.83352
	689.035	48.5652	6.96887
	690.934	48.0219	6.92979
	692.833	46.3935	6.81128
	694.731	44.769	6.69096
	696.63	45.9187	6.77634
	698.528	51.6575	7.18732
	700.427	63.8595	7.99121
	702.326	85.4679	9.24488
	704.224	114.711	10.7103
	706.123	155.539	12.4715
	708.021	200.02	14.1429
	709.92	235.362	15.3415
	711.819	257.172	16.0366
	713.717	255.705	15.9908
	715.616	238.767	15.4521
	717.515	204.464	14.2991
	719.413	164.047	12.8081
	721.312	126.149	11.2316
	723.21	93.6383	9.67669
	725.109	68.2599	8.26195
	727.008	49.156	7.01113
	728.906	35.8456	5.98712
	730.805	27.2041	5.21575
	732.704	21.7352	4.6621
	734.602	17.9737	4.23954
	736.501	14.6089	3.82216
	738.399	11.7521	3.42813
	740.298	9.55873	3.09172
	742.197	8.28776	2.87885
	744.095	6.81679	2.6109
	745.994	5.82449	2.4134
	747.892	5.3606	2.3153
	749.791	5.29425	2.30092
	751.69	4.88583	2.21039
	753.588	4.15227	2.03771
	755.487	3.07191	1.75269
	757.386	1.9031	1.37953
	759.284	1.33909	1.15719
	761.183	1.29079	1.13613
	763.081	1.42699	1.19457
	764.98	1.1224	1.05943
	766.879	0.953366	0.976405
	768.777	0.83947	0.916226
	770.676	0.675247	0.821734
	772.575	0.413225	0.642826
	774.473	0.613539	0.783288
	776.372	0.759418	0.871446
	778.27	0.138268	0.371844
	780.169	-0.214454	0.463092
	782.068	-0.301197	0.548814
	783.966	0.125814	0.354703
	785.865	0.571056	0.755683
	787.764	0.707994	0.841424
	789.662	0.600681	0.775036
	791.561	0.478944	0.692058
	793.459	0.443915	0.666269
	795.358	0.191628	0.437754
	797.257	0.0582445	0.241339
	799.155	0.00182506	0.0427207
	801.054	-0.104915	0.323906
	802.952	0.0172252	0.131245
	804.851	0.0147754	0.121554
	806.75	0.403652	0.635336
	808.648	0.653031	0.808103
	810.547	0.404865	0.63629
	812.446	-0.0490906	0.221564
	814.344	-0.199033	0.446131
	816.243	-0.0553829	0.235336
	818.141	-0.177361	0.421143
	820.04	-0.133149	0.364896
	821.939	0.0930278	0.305005
	823.837	0.37931	0.615882
	825.736	0.535302	0.731644
	827.635	0.243252	0.493206
	829.533	0.196956	0.443797
	831.432	0.271579	0.521132
	833.33	0.729517	0.854118
	835.229	0.490924	0.70066
	837.128	0.439627	0.663044
	839.026	0.558846	0.74756
	840.925	0.704559	0.83938
	842.823	0.718487	0.847636
	844.722	0.897982	0.947619
	846.621	1.36468	1.1682
	848.519	1.0707	1.03474
	850.418	0.68157	0.825572
	852.317	0.886651	0.941622
	854.215	0.518896	0.720344
	856.114	0.430093	0.655815
	858.012	0.0691951	0.26305
	859.911	0.146527	0.382789
	861.81	-0.127422	0.356962
	863.708	-0.105791	0.325256
	865.607	-0.418885	0.647213
	867.506	-0.023483	0.153242
	869.404	-0.17966	0.423864
	871.303	-0.387073	0.622152
	873.201	-0.650808	0.806726
	875.1	-0.816965	0.903861
	876.999	-0.926203	0.962394
	878.897	-0.925203	0.961875
	880.796	-1.08568	1.04196
	882.694	-0.958968	0.979269
	884.593	-0.856418	0.925428
	886.492	-0.614952	0.784189
	888.39	-0.518764	0.720253
	890.289	-0.48909	0.69935
	892.188	-0.217373	0.466232
	894.086	0.469319	0.685068
	895.985	1.12488	1.06061
	897.883	1.96208	1.40074
	899.782	2.97139	1.72377
	901.681	4.28922	2.07104
	903.579	5.86769	2.42233
	905.478	6.89651	2.62612
	907.377	8.30447	2.88175
	909.275	9.41472	3.06834
	911.174	11.0954	3.33097
	913.072	13.1019	3.61965
	914.971	15.3916	3.92321
	916.87	18.347	4.28334
	918.768	22.654	4.75962
	920.667	29.1104	5.3954
	922.565	39.4635	6.282
	924.464	55.9412	7.47939
	926.363	83.8795	9.15857
	928.261	129.131	11.3636
	930.16	200.313	14.1532
	932.059	295.118	17.179
	933.957	416.349	20.4046
	935.856	542.094	23.2829
	937.754	663.009	25.749
	939.653	759.08	27.5514
	941.552	813.497	28.5219
	943.45	829.81	28.8064
	945.349	805.63	28.3836
	947.248	766.107	27.6786
	949.146	716.128	26.7606
	951.045	655.173	25.5964
	952.943	599.221	24.479
	954.842	555.708	23.5735
	956.741	540.709	23.2531
	958.639	556.165	23.5832
	960.538	616.715	24.8337
	962.436	684.245	26.1581
	964.335	752.858	27.4383
	966.234	793.433	28.1679
	968.132	823.745	28.701
	970.031	852.922	29.2048
	971.93	882.805	29.712
	973.828	893.046	29.8839
	975.727	861.896	29.3581
	977.625	790.849	28.122
	979.524	708.028	26.6088
	981.423	614.391	24.7869
	983.321	523.935	22.8896
	985.22	440.026	20.9768
	987.119	372.786	19.3077
	989.017	314.757	17.7414
	990.916	266.541	16.3261
	992.814	225.214	15.0071
	994.713	192.011	13.8568
	996.612	164.482	12.825
	998.51	143.036	11.9598
	1000.41	123.031	11.0919
	1002.31	106.221	10.3063
	1004.21	90.7761	9.52765
	1006.1	77.2179	8.78737
	1008	64.1331	8.00832
	1009.9	52.5133	7.2466
	1011.8	41.1477	6.41465
	1013.7	32.083	5.66418
	1015.6	24.6305	4.96291
	1017.5	18.086	4.25276
	1019.4	13.5874	3.68611
	1021.29	9.66198	3.10837
	1023.19	6.6146	2.57189
	1025.09	3.92176	1.98034
	1026.99	1.87318	1.36864
	1028.89	1.07166	1.03521
	1030.79	0.556045	0.745684
	1032.69	0.0677809	0.260348
	1034.58	-0.503155	0.709334
	1036.48	-1.38503	1.17687
	1038.38	-1.8779	1.37036
	1040.28	-2.22351	1.49114
	1042.18	-1.83164	1.35338
	1044.08	-1.59965	1.26477
	1045.98	-0.987329	0.993644
	1047.87	-1.27506	1.12918
	1049.77	-1.77891	1.33376
	1051.67	-2.30339	1.51769
	1053.57	-2.50552	1.58288
	1055.47	-2.10472	1.45077
	1057.37	-1.11298	1.05498
	1059.27	0.137852	0.371284
	1061.16	1.66975	1.29219
	1063.06	3.14901	1.77455
	1064.96	4.78983	2.18857
	1066.86	6.56948	2.5631
	1068.76	8.0107	2.83032
	1070.66	9.00896	3.00149
	1072.56	9.85892	3.13989
	1074.46	9.93824	3.1525
	1076.35	10.5398	3.2465
	1078.25	10.5623	3.24997
	1080.15	10.7578	3.27991
	1082.05	11.1979	3.34633
	1083.95	12.31	3.50856
	1085.85	13.4265	3.66422
	1087.75	14.8296	3.85092
	1089.64	16.2474	4.0308
	1091.54	17.9433	4.23595
	1093.44	20.1297	4.48662
	1095.34	22.7715	4.77195
	1097.24	25.7974	5.07911
	1099.14	28.3038	5.32013
	1101.04	31.3692	5.60083
	1102.93	34.0053	5.83141
	1104.83	37.2762	6.10542
	1106.73	40.6907	6.37893
	1108.63	45.0806	6.71421
	1110.53	49.039	7.00278
	1112.43	52.6855	7.25848
	1114.33	55.9824	7.48214
	1116.22	58.869	7.67261
	1118.12	61.3008	7.82948
	1120.02	62.7771	7.9232
	1121.92	62.5334	7.90781
	1123.82	61.8869	7.86682
	1125.72	61.4462	7.83876
	1127.62	60.4559	7.77534
	1129.51	58.4658	7.64629
	1131.41	55.7773	7.46842
	1133.31	52.5686	7.25042
	1135.21	49.4673	7.0333
	1137.11	46.2079	6.79764
	1139.01	43.0874	6.5641
	1140.91	39.8919	6.31601
	1142.81	36.5973	6.04957
	1144.7	33.6281	5.79898
	1146.6	30.1069	5.48698
	1148.5	27.3275	5.22757
	1150.4	24.2888	4.92836
	1152.3	23.9462	4.89349
	1154.2	22.0168	4.6922
	1156.1	19.382	4.4025
	1157.99	16.6942	4.08586
	1159.89	14.1445	3.76092
	1161.79	12.2115	3.49449
	1163.69	10.4406	3.23119
	1165.59	9.33534	3.05538
	1167.49	7.86076	2.80371
	1169.39	6.76077	2.60015
	1171.28	5.63971	2.37481
	1173.18	4.55995	2.1354
	1175.08	4.11211	2.02783
	1176.98	3.63748	1.90722
	1178.88	3.47111	1.86309
	1180.78	3.0048	1.73344
	1182.68	3.03325	1.74162
	1184.57	2.84702	1.68731
	1186.47	2.128	1.45877
	1188.37	1.59788	1.26407
	1190.27	0.867777	0.931545
	1192.17	0.746687	0.86411
	1194.07	0.496303	0.704488
	1195.97	0.730917	0.854937
	1197.87	1.41117	1.18793
	1199.76	2.48057	1.57498
	1201.66	4.44503	2.10832
	1203.56	6.96168	2.6385
	1205.46	11.7003	3.42057
	1207.36	17.9722	4.23936
	1209.26	26.6938	5.1666
	1211.16	39.7335	6.30345
	1213.05	57.7165	7.59714
	1214.95	81.8616	9.04774
	1216.85	113.718	10.6639
	1218.75	153.244	12.3792
	1220.65	202.191	14.2194
	1222.55	257.055	16.0329
	1224.45	321.142	17.9204
	1226.34	383.379	19.5801
	1228.24	443.357	21.056
	1230.14	485.302	22.0296
	1232.04	518.454	22.7696
	1233.94	519.031	22.7822
	1235.84	504.712	22.4658
	1237.74	465.168	21.5678
	1239.63	419.439	20.4802
	1241.53	363.639	19.0693
	1243.43	313.254	17.699
	1245.33	265.47	16.2932
	1247.23	218.647	14.7867
	1249.13	176.067	13.269
	1251.03	141.715	11.9044
	1252.93	114.858	10.7172
	1254.82	97.0153	9.84963
	1256.72	82.3468	9.07451
	1258.62	72.2163	8.49802
	1260.52	65.305	8.08115
	1262.42	59.761	7.73052
	1264.32	55.1457	7.42601
	1266.22	50.6491	7.11682
	1268.11	47.9475	6.92442
	1270.01	46.2151	6.79817
	1271.91	44.7773	6.69158
	1273.81	43.6105	6.60382
	1275.71	42.8707	6.54757
	1277.61	42.668	6.53208
	1279.51	43.0629	6.56223
	1281.4	43.2156	6.57386
	1283.3	43.9108	6.62652
	1285.2	44.5033	6.67108
	1287.1	46.2341	6.79956
	1289	47.415	6.88586
	1290.9	49.0536	7.00383
	1292.8	50.6932	7.11992
	1294.69	51.6633	7.18772
	1296.59	52.972	7.27819
	1298.49	53.7588	7.33204
	1300.39	54.7976	7.40254
	1302.29	55.6048	7.45686
	1304.19	55.9429	7.4795
	1306.09	55.5656	7.45423
	1307.99	55.1091	7.42355
	1309.88	55.3728	7.44129
	1311.78	55.6475	7.45973
	1313.68	56.2286	7.49858
	1315.58	56.3312	7.50541
	1317.48	56.7393	7.53255
	1319.38	57.2556	7.56674
	1321.28	58.2128	7.62973
	1323.17	59.9594	7.74334
	1325.07	60.9517	7.80716
	1326.97	61.6458	7.85148
	1328.87	62.4907	7.90511
	1330.77	62.2312	7.88868
	1332.67	61.8075	7.86177
	1334.57	60.195	7.75854
	1336.46	59.0949	7.68732
	1338.36	56.6626	7.52746
	1340.26	53.1646	7.2914
	1342.16	48.7095	6.97922
	1344.06	44.4246	6.66518
	1345.96	40.6253	6.3738
	1347.86	36.7657	6.06347
	1349.75	32.628	5.71209
	1351.65	29.0306	5.38801
	1353.55	25.3453	5.03441
	1355.45	22.1843	4.71002
	1357.35	18.9288	4.35073
	1359.25	15.824	3.97794
	1361.15	13.2353	3.63803
	1363.05	11.2676	3.35672
	1364.94	10.1543	3.18659
	1366.84	8.85025	2.97494
	1368.74	6.78699	2.60518
	1370.64	5.10825	2.26014
	1372.54	3.66051	1.91325
	1374.44	2.41264	1.55327
	1376.34	0.982438	0.99118
	1378.23	0.0196585	0.140209
	1380.13	-0.858943	0.926792
	1382.03	-1.51575	1.23116
	1383.93	-2.07517	1.44055
	1385.83	-2.28569	1.51185
	1387.73	-2.2521	1.5007
	1389.63	-2.28952	1.51312
	1391.52	-2.08424	1.44369
	1393.42	-1.59326	1.26224
	1395.32	-1.27825	1.1306
	1397.22	-0.53372	0.730562
	1399.12	0.314286	0.560612
	1401.02	1.63536	1.27881
	1402.92	2.99354	1.73018
	1404.81	4.66346	2.15951
	1406.71	6.17574	2.4851
	1408.61	7.46603	2.7324
	1410.51	9.43854	3.07222
	1412.41	11.3081	3.36275
	1414.31	13.8507	3.72165
	1416.21	16.0633	4.0079
	1418.11	18.2549	4.27257
	1420	19.8151	4.45141
	1421.9	21.2778	4.61279
	1423.8	22.1318	4.70444
	1425.7	22.1249	4.70371
	1427.6	21.9989	4.69029
	1429.5	21.7932	4.66831
	1431.4	21.6485	4.65279
	1433.29	20.6461	4.5438
	1435.19	19.4187	4.40667
	1437.09	17.6866	4.20554
	1438.99	15.2685	3.9075
	1440.89	12.9797	3.60273
	1442.79	10.9432	3.30805
	1444.69	9.42639	3.07024
	1446.58	7.83689	2.79945
	1448.48	6.2951	2.509
	1450.38	5.09302	2.25677
	1452.28	3.87948	1.96964
	1454.18	3.05697	1.74842
	1456.08	2.67738	1.63627
	1457.98	1.91077	1.38231
	1459.87	1.68211	1.29696
	1461.77	1.1231	1.05976
	1463.67	0.742679	0.861788
	1465.57	-0.280653	0.529767
	1467.47	-0.391098	0.625378
	1469.37	-0.278968	0.528174
	1471.27	0.13733	0.370581
	1473.17	0.399513	0.63207
	1475.06	0.272786	0.522289
	1476.96	-0.20592	0.453784
	1478.86	-0.53688	0.732721
	1480.76	-0.47848	0.691722
	1482.66	-0.705061	0.839679
	1484.56	-0.813031	0.901682
	1486.46	-0.933696	0.96628
	1488.35	-1.00371	1.00186
	1490.25	-0.925884	0.962229
	1492.15	-0.716553	0.846495
	1494.05	-0.342388	0.585139
	1495.95	-0.218288	0.467213
	1497.85	-0.282286	0.531306
	1499.75	-0.273828	0.523286
	1501.64	0.053767	0.231877
	1503.54	0.0744515	0.272858
	1505.44	0.396777	0.629903
	1507.34	0.260978	0.51086
	1509.24	0.333109	0.577156
	1511.14	0.096349	0.310401
	1513.04	-0.144288	0.379853
	1514.93	-0.00154645	0.039325
	1516.83	0.196253	0.443004
	1518.73	1.01768	1.0088
	1520.63	1.36343	1.16766
	1522.53	1.22454	1.10659
	1524.43	0.944765	0.97199
	1526.33	0.821034	0.906109
	1528.23	0.821693	0.906473
	1530.12	0.896596	0.946888
	1532.02	0.956216	0.977863
	1533.92	1.08946	1.04377
	1535.82	1.30275	1.14138
	1537.72	1.23346	1.11061
	1539.62	0.972066	0.985934
	1541.52	0.641185	0.800741
	1543.41	0.381108	0.617339
	1545.31	0.859414	0.927046
	1547.21	0.570636	0.755405
	1549.11	0.380224	0.616623
	1551.01	0.0935863	0.305919
	1552.91	0.0909522	0.301583
	1554.81	0.154945	0.393631
	1556.7	0.187122	0.432576
	1558.6	0.0754964	0.274766
	1560.5	-0.00776181	0.0881011
	1562.4	-0.240725	0.490638
	1564.3	-0.334693	0.578526
	1566.2	0.0396345	0.199084
	1568.1	0.286347	0.535114
	1569.99	0.764227	0.874201
	1571.89	0.766971	0.875769
	1573.79	0.798553	0.893618
	1575.69	0.77125	0.878208
	1577.59	0.514237	0.717103
	1579.49	0.392802	0.626739
	1581.39	0.335734	0.579426
	1583.29	0.281036	0.530128
	1585.18	0.154101	0.392558
	1587.08	0.348582	0.590408
	1588.98	0.915183	0.956652
	1590.88	1.68778	1.29915
	1592.78	2.3843	1.54412
	1594.68	2.58712	1.60845
	1596.58	2.77209	1.66496
	1598.47	2.86543	1.69276
	1600.37	3.44512	1.8561
	1602.27	3.86469	1.96588
	1604.17	4.20941	2.05168
	1606.07	4.51553	2.12498
	1607.97	5.60036	2.36651
	1609.87	6.48665	2.54689
	1611.76	7.14819	2.67361
	1613.66	7.8008	2.79299
	1615.56	8.6203	2.93603
	1617.46	9.68707	3.11241
	1619.36	10.3438	3.21618
	1621.26	11.1943	3.34579
	1623.16	12.1872	3.49102
	1625.05	12.9963	3.60503
	1626.95	13.2172	3.63554
	1628.85	14.0397	3.74696
	1630.75	14.7986	3.84689
	1632.65	15.4339	3.9286
	1634.55	15.9183	3.98978
	1636.45	16.3534	4.04393
	1638.34	16.5178	4.06421
	1640.24	16.5847	4.07243
	1642.14	16.4963	4.06157
	1644.04	16.5749	4.07123
	1645.94	16.8252	4.10185
	1647.84	16.7284	4.09003
	1649.74	16.4888	4.06065
	1651.64	15.9977	3.99972
	1653.53	15.6696	3.95849
	1655.43	15.0613	3.88088
	1657.33	14.5411	3.81327
	1659.23	14.3179	3.7839
	1661.13	14.6299	3.8249
	1663.03	14.7264	3.8375
	1664.93	15.026	3.87633
	1666.82	15.8992	3.98738
	1668.72	17.6415	4.20018
	1670.62	19.649	4.43272
	1672.52	22.0879	4.69978
	1674.42	25.1154	5.01152
	1676.32	28.7828	5.36496
	1678.22	32.4499	5.69648
	1680.11	36.7207	6.05976
	1682.01	40.913	6.39632
	1683.91	44.9093	6.70144
	1685.81	47.6348	6.9018
	1687.71	48.3366	6.95245
	1689.61	47.3866	6.88379
	1691.51	44.0296	6.63548
	1693.4	38.5611	6.20976
	1695.3	31.993	5.65623
	1697.2	26.1492	5.11363
	1699.1	20.7112	4.55095
	1701	16.223	4.02778
	1702.9	13.2243	3.63652
	1704.8	11.0933	3.33065
	1706.7	9.74882	3.12231
	1708.59	8.2741	2.87647
	1710.49	7.08145	2.6611
	1712.39	6.11097	2.47204
	1714.29	5.42577	2.32933
	1716.19	5.11454	2.26153
	1718.09	4.82084	2.19564
	1719.99	4.44115	2.1074
	1721.88	4.09611	2.02389
	1723.78	3.61875	1.9023
	1725.68	2.96461	1.72181
	1727.58	2.02637	1.42351
	1729.48	1.42039	1.1918
	1731.38	1.12473	1.06053
	1733.28	0.929028	0.963861
	1735.17	0.427319	0.653697
	1737.07	-0.383585	0.619342
	1738.97	-0.54361	0.737299
	1740.87	-0.737235	0.858624
	1742.77	-0.553453	0.743944
	1744.67	-0.76269	0.873321
	1746.57	-1.09758	1.04765
	1748.46	-0.951075	0.975231
	1750.36	-0.764819	0.874539
	1752.26	-0.0393189	0.19829
	1754.16	0.175765	0.419243
	1756.06	-0.0731936	0.270543
	1757.96	-0.613588	0.783318
	1759.86	-0.628315	0.792663
	1761.76	-0.142033	0.376872
	1763.65	0.140024	0.374198
	1765.55	0.634025	0.796257
	1767.45	0.892342	0.944639
	1769.35	1.021	1.01045
	1771.25	0.982827	0.991377
	1773.15	1.55183	1.24572
	1775.05	2.20794	1.48591
	1776.94	2.87788	1.69643
	1778.84	3.75435	1.93761
	1780.74	4.58643	2.1416
	1782.64	5.43463	2.33123
	1784.54	6.22546	2.49509
	1786.44	6.66669	2.58199
	1788.34	7.10756	2.666
	1790.23	7.26992	2.69628
	1792.13	7.96362	2.82199
	1794.03	8.71031	2.95132
	1795.93	10.0897	3.17642
	1797.83	11.6777	3.41726
	1799.73	14.1238	3.75816
	1801.63	16.8471	4.10452
	1803.52	20.1107	4.4845
	1805.42	23.4965	4.84732
	1807.32	27.662	5.25947
	1809.22	32.4137	5.69331
	1811.12	37.7613	6.14502
	1813.02	42.401	6.5116
	1814.92	47.7442	6.90972
	1816.82	53.5114	7.31515
	1818.71	59.6256	7.72176
	1820.61	66.0118	8.12476
	1822.51	73.5409	8.5756
	1824.41	82.0649	9.05897
	1826.31	91.1914	9.54942
	1828.21	99.7842	9.98921
	1830.11	106.74	10.3315
	1832	111.388	10.554
	1833.9	112.934	10.6271
	1835.8	111.96	10.5811
	1837.7	106.658	10.3275
	1839.6	99.1516	9.95749
	1841.5	90.12	9.49315
	1843.4	80.8506	8.9917
	1845.29	70.7761	8.41286
	1847.19	62.0159	7.87502
	1849.09	55.0591	7.42018
	1850.99	49.531	7.03782
	1852.89	44.6404	6.68135
	1854.79	40.7035	6.37993
	1856.69	37.8543	6.15259
	1858.58	35.4759	5.95616
	1860.48	33.53	5.79051
	1862.38	31.6447	5.62536
	1864.28	30.3123	5.50566
	1866.18	29.1075	5.39513
	1868.08	28.0302	5.29436
	1869.98	25.7963	5.07901
	1871.88	22.7229	4.76686
	1873.77	19.3311	4.39671
	1875.67	16.9533	4.11743
	1877.57	14.7606	3.84195
	1879.47	13.3617	3.65537
	1881.37	11.843	3.44136
	1883.27	10.6637	3.26554
	1885.17	9.47023	3.07737
	1887.06	8.73742	2.95591
	1888.96	8.44478	2.90599
	1890.86	7.87929	2.80701
	1892.76	7.73017	2.78032
	1894.66	7.36927	2.71464
	1896.56	7.99589	2.8277
	1898.46	8.39681	2.89773
	1900.35	8.81254	2.96859
	1902.25	8.93245	2.98872
	1904.15	9.11512	3.01912
	1906.05	9.64149	3.10508
	1907.95	10.0051	3.16308
	1909.85	10.5241	3.24409
	1911.75	10.9121	3.30335
	1913.64	10.8199	3.28936
	1915.54	10.8162	3.2888
	1917.44	11.0532	3.32463
	1919.34	11.2783	3.35831
	1921.24	11.4101	3.37788
	1923.14	12.0908	3.47718
	1925.04	12.7235	3.567
	1926.94	13.5297	3.67828
	1928.83	14.0809	3.75245
	1930.73	14.8176	3.84936
	1932.63	15.7252	3.9655
	1934.53	16.7042	4.08707
	1936.43	17.7764	4.2162
	1938.33	18.337	4.28217
	1940.23	18.0942	4.25373
	1942.12	17.4741	4.18021
	1944.02	17.0533	4.12957
	1945.92	16.2463	4.03066
	1947.82	14.7258	3.83742
	1949.72	12.441	3.52718
	1951.62	10.3764	3.22125
	1953.52	8.45949	2.90852
	1955.41	6.7324	2.59469
	1957.31	5.09995	2.25831
	1959.21	3.75037	1.93659
	1961.11	3.20987	1.79161
	1963.01	2.41295	1.55337
	1964.91	1.77384	1.33185
	1966.81	0.949694	0.974523
	1968.7	0.592331	0.76963
	1970.6	0.443768	0.666159
	1972.5	0.64754	0.804699
	1974.4	1.07429	1.03648
	1976.3	1.43553	1.19814
	1978.2	1.80863	1.34485
	1980.1	2.7095	1.64606
	1982	3.78141	1.94458
	1983.89	5.71582	2.39078
	1985.79	7.34908	2.71092
	1987.69	9.175	3.02903
	1989.59	11.135	3.33692
	1991.49	13.6569	3.69553
	1993.39	16.4549	4.05647
	1995.29	20.0852	4.48165
	1997.18	23.9179	4.8906
	1999.08	28.1015	5.30108
	2000.98	31.4443	5.60752
	2002.88	34.7104	5.89156
	2004.78	37.5355	6.12663
	2006.68	39.8558	6.31315
	2008.58	41.8585	6.46982
	2010.47	43.5306	6.59777
	2012.37	44.2386	6.65121
	2014.27	43.7481	6.61423
	2016.17	43.0317	6.55985
	2018.07	41.8582	6.46979
	2019.97	40.1154	6.33367
	2021.87	37.6862	6.13891
	2023.76	35.3596	5.9464
	2025.66	33.3427	5.77431
	2027.56	32.4755	5.69873
	2029.46	31.333	5.59759
	2031.36	30.9337	5.56181
	2033.26	30.1769	5.49335
	2035.16	30.0537	5.48213
	2037.06	29.5684	5.43768
	2038.95	29.7104	5.45072
	2040.85	29.2957	5.41255
	2042.75	28.8927	5.3752
	2044.65	28.5326	5.34159
	2046.55	28.7969	5.36628
	2048.45	29.0837	5.39293
	2050.35	29.0907	5.39358
	2052.24	29.0559	5.39035
	2054.14	28.9632	5.38174
	2056.04	29.073	5.39194
	2057.94	29.241	5.40749
	2059.84	29.0094	5.38604
	2061.74	28.6247	5.35021
	2063.64	28.1274	5.30353
	2065.53	27.4521	5.23947
	2067.43	26.2188	5.12043
	2069.33	24.9988	4.99988
	2071.23	24.0874	4.90789
	2073.13	23.2739	4.8243
	2075.03	22.3699	4.72968
	2076.93	21.5836	4.64581
	2078.82	20.6761	4.5471
	2080.72	19.9322	4.46455
	2082.62	19.4159	4.40635
	2084.52	19.0392	4.36339
	2086.42	18.5687	4.30915
	2088.32	18.184	4.26427
	2090.22	17.4329	4.17527
	2092.12	16.7617	4.09411
	2094.01	15.8762	3.9845
	2095.91	15.3289	3.91521
	2097.81	14.6046	3.8216
	2099.71	13.7079	3.70242
	2101.61	13.0407	3.61119
	2103.51	12.2946	3.50637
	2105.41	11.3781	3.37314
	2107.3	10.9118	3.3033
	2109.2	10.5238	3.24404
	2111.1	10.2055	3.1946
	2113	9.80276	3.13094
	2114.9	9.62637	3.10264
	2116.8	9.14396	3.0239
	2118.7	8.59121	2.93108
	2120.59	8.008	2.82984
	2122.49	7.11226	2.66688
	2124.39	6.61467	2.5719
	2126.29	6.01258	2.45206
	2128.19	5.59752	2.36591
	2130.09	5.30598	2.30347
	2131.99	5.2462	2.29046
	2133.88	4.94147	2.22294
	2135.78	4.34992	2.08565
	2137.68	3.76527	1.94043
	2139.58	3.62017	1.90268
	2141.48	3.13582	1.77082
	2143.38	2.91675	1.70785
	2145.28	2.58715	1.60846
	2147.17	2.31866	1.52272
	2149.07	1.75064	1.32312
	2150.97	1.57729	1.2559
	2152.87	1.27399	1.12871
	2154.77	0.958566	0.979064
	2156.67	0.894276	0.945662
	2158.57	0.965863	0.982783
	2160.47	0.64848	0.805282
	2162.36	0.360287	0.600239
	2164.26	0.363877	0.603222
	2166.16	0.59868	0.773744
	2168.06	0.764003	0.874073
	2169.96	0.69084	0.831168
	2171.86	0.78477	0.885873
	2173.76	0.585347	0.76508
	2175.65	0.403132	0.634927
	2177.55	0.343815	0.586357
	2179.45	0.489953	0.699966
	2181.35	0.125232	0.353882
	2183.25	-0.395824	0.629146
	2185.15	-0.870643	0.933083
	2187.05	-1.07214	1.03544
	2188.94	-1.134	1.0649
	2190.84	-0.673263	0.820526
	2192.74	-0.464854	0.681802
	2194.64	-0.522414	0.722782
	2196.54	-0.50624	0.711506
	2198.44	-0.242728	0.492674
	2200.34	0.147359	0.383874
	2202.23	0.742424	0.86164
	2204.13	1.26775	1.12594
	2206.03	1.84137	1.35697
	2207.93	2.40622	1.5512
	2209.83	3.33584	1.82643
	2211.73	4.87745	2.20849
	2213.63	6.83136	2.61369
	2215.53	8.94639	2.99105
	2217.42	11.2021	3.34695
	2219.32	13.3209	3.64979
	2221.22	15.0554	3.88013
	2223.12	16.0443	4.00554
	2225.02	16.5516	4.06837
	2226.92	16.2562	4.03189
	2228.82	15.1528	3.89265
	2230.71	13.1796	3.63037
	2232.61	11.0274	3.32075
	2234.51	8.76443	2.96048
	2236.41	6.57891	2.56494
	2238.31	4.91318	2.21657
	2240.21	3.68742	1.92027
	2242.11	2.81753	1.67855
	2244	2.19069	1.4801
	2245.9	1.99827	1.4136
	2247.8	1.85673	1.36262
	2249.7	1.63013	1.27677
	2251.6	1.34248	1.15866
	2253.5	1.24088	1.11395
	2255.4	1.38567	1.17715
	2257.29	1.27923	1.13103
	2259.19	0.77902	0.882621
	2261.09	0.261175	0.511053
	2262.99	-0.010971	0.104743
	2264.89	-0.050814	0.22542
	2266.79	0.019083	0.138141
	2268.69	-0.0669023	0.258655
	2270.59	0.0931631	0.305226
	2272.48	-0.127881	0.357604
	2274.38	-0.0380065	0.194952
	2276.28	0.163302	0.404106
	2278.18	0.500629	0.707551
	2280.08	0.887011	0.941813
	2281.98	0.731989	0.855563
	2283.88	0.522093	0.72256
	2285.77	0.387966	0.622869
	2287.67	0.594628	0.771121
	2289.57	0.756371	0.869696
	2291.47	0.732026	0.855585
	2293.37	0.443068	0.665633
	2295.27	0.292836	0.541143
	2297.17	0.192267	0.438482
	2299.06	-0.102537	0.320214
	2300.96	-0.12823	0.358092
	2302.86	-0.051869	0.227748
	2304.76	0.222263	0.471447
	2306.66	0.418279	0.646745
	2308.56	0.403241	0.635012
	2310.46	0.0763551	0.276324
	2312.35	0.0313468	0.17705
	2314.25	0.00845844	0.0919698
	2316.15	0.257602	0.507545
	2318.05	0.205484	0.453303
	2319.95	0.269887	0.519507
	2321.85	0.21997	0.46901
	2323.75	0.304396	0.551721
	2325.65	0.0252557	0.15892
	2327.54	-0.176688	0.420342
	2329.44	-0.266944	0.516666
	2331.34	-0.164712	0.405847
	2333.24	0.15224	0.39018
	2335.14	0.370924	0.609035
	2337.04	0.480022	0.692836
	2338.94	0.503976	0.709913
	2340.83	0.591361	0.769
	2342.73	0.573296	0.757163
	2344.63	0.393269	0.627112
	2346.53	0.293264	0.541539
	2348.43	0.205561	0.453389
	2350.33	0.200799	0.448106
	2352.23	0.260655	0.510544
	2354.12	0.475904	0.689858
	2356.02	0.384731	0.620267
	2357.92	0.152028	0.389908
	2359.82	-0.0320127	0.178921
	2361.72	0.0118278	0.108756
	2363.62	0.0941254	0.306799
	2365.52	0.032882	0.181334
	2367.41	0.0510431	0.225927
	2369.31	0.139924	0.374064
	2371.21	0.163354	0.40417
	2373.11	0.0907753	0.301289
	2375.01	0.0800728	0.282971
	2376.91	0.230053	0.479639
	2378.81	0.162171	0.402704
	2380.71	0.152885	0.391006
	2382.6	0.168972	0.411062
	2384.5	0.0459897	0.214452
	2386.4	0.0147682	0.121524
	2388.3	0.243836	0.493798
	2390.2	0.389462	0.624069
	2392.1	0.5121	0.715612
	2394	0.320813	0.566403
	2395.89	0.286776	0.535515
	2397.79	0.0493036	0.222044
	2399.69	0.100956	0.317736
	2401.59	0.0562252	0.237119
	2403.49	0.135916	0.368668
	2405.39	-0.0303047	0.174082
	2407.29	-0.125489	0.354245
	2409.18	-0.22635	0.475762
	2411.08	-0.0511076	0.22607
	2412.98	0.18023	0.424535
	2414.88	0.397667	0.630609
	2416.78	0.201071	0.448409
	2418.68	0.0121617	0.11028
	2420.58	-0.30541	0.552639
	2422.47	-0.298669	0.546506
	2424.37	0.247863	0.497859
