Generated file C:/Users/didvk/OneDrive - University of Florida/UF_Isaiah_06-16-2020-Tue/Analysis/Re0.1Mo0.9B2/Re0.1Mo0.9B2_HPXRD_run2_300_20220710 - Copy/mask&dat&fxye_4position/17_ReMoB2_78p0GPa_670psi_P1_C4_D1w_120.fxye using DIOPTAS
# == pyFAI calibration ==
# Distance Sample to Detector: 0.2103851508954585 m
# PONI: 8.889e-02, 8.665e-02 m
# Rotations: 0.008634 -0.000915 0.000000 rad
# 
# == Fit2d calibration ==
# Distance Sample-beamCenter: 210.393 mm
# Center: x=493.236, y=515.685 pix
# Tilt: 0.497 deg  TiltPlanRot: -173.953 deg
# 
# Detector Detector	 Spline= None	 PixelSize= 1.720e-04, 1.720e-04 m
#    Detector has a mask: False 
#    Detector has a dark current: False 
#    detector has a flat field: False 
# 
# Wavelength: 4.133e-11 m
# Mask applied: None
# Dark current applied: None
# Flat field applied: None
# Polarization factor: None
# Normalization factor: None
BANK	1	1129	1129 CONS	282.731	1.89862 0.4133 0.0 FXYE
	282.731	0.255493	0.505463
	284.629	0.062591	0.250182
	286.528	0.030213	0.173819
	288.427	0.120949	0.347778
	290.325	0.535867	0.732029
	292.224	0.626029	0.79122
	294.122	1.4302	1.19591
	296.021	2.1797	1.47638
	297.92	2.08097	1.44256
	299.818	1.10551	1.05143
	301.717	0.0689423	0.262569
	303.616	0.15661	0.395739
	305.514	0.165671	0.407027
	307.413	0.555434	0.745274
	309.311	1.55263	1.24605
	311.21	1.99256	1.41158
	313.109	2.46309	1.56943
	315.007	1.85194	1.36086
	316.906	2.2074	1.48573
	318.805	1.57166	1.25366
	320.703	1.18455	1.08837
	322.602	0.794496	0.891345
	324.5	0.665437	0.815743
	326.399	0.914443	0.956265
	328.298	0.685888	0.828183
	330.196	0.865261	0.930194
	332.095	0.46947	0.685179
	333.993	1.2168	1.10309
	335.892	2.13602	1.46151
	337.791	2.98085	1.72651
	339.689	3.28315	1.81195
	341.588	4.61393	2.14801
	343.487	5.61587	2.36978
	345.385	6.4673	2.54309
	347.284	8.51163	2.91747
	349.182	12.4307	3.52572
	351.081	18.3662	4.28558
	352.98	26.1686	5.11552
	354.878	34.1077	5.84018
	356.777	39.7394	6.30392
	358.676	38.7735	6.22684
	360.574	31.7274	5.63271
	362.473	21.5546	4.64269
	364.371	14.5404	3.81319
	366.27	8.45961	2.90854
	368.169	5.09963	2.25824
	370.067	3.21696	1.79359
	371.966	2.13736	1.46197
	373.864	2.0387	1.42783
	375.763	2.10697	1.45154
	377.662	2.04944	1.43158
	379.56	1.63378	1.27819
	381.459	1.21748	1.1034
	383.358	0.872739	0.934205
	385.256	0.860635	0.927704
	387.155	1.15486	1.07464
	389.053	1.303	1.14149
	390.952	0.959819	0.979703
	392.851	0.500334	0.707343
	394.749	0.175995	0.419517
	396.648	0.404348	0.635883
	398.547	0.562894	0.750262
	400.445	0.50824	0.712909
	402.344	0.816767	0.903751
	404.242	0.882974	0.939667
	406.141	0.78656	0.886882
	408.04	0.637374	0.798357
	409.938	0.663777	0.814725
	411.837	0.563339	0.750559
	413.735	0.737441	0.858744
	415.634	0.995229	0.997612
	417.533	1.05688	1.02805
	419.431	0.99712	0.998559
	421.33	0.987973	0.993969
	423.229	1.06518	1.03208
	425.127	0.852821	0.923483
	427.026	0.856638	0.925547
	428.924	0.829962	0.911023
	430.823	1.17826	1.08548
	432.722	0.839684	0.916343
	434.62	0.51498	0.717621
	436.519	0.731298	0.85516
	438.418	0.925646	0.962105
	440.316	1.15081	1.07276
	442.215	1.1635	1.07866
	444.113	0.839414	0.916195
	446.012	0.549087	0.741004
	447.911	-0.12125	0.34821
	449.809	-0.199659	0.446832
	451.708	0.161779	0.402217
	453.606	0.227357	0.47682
	455.505	0.259372	0.509286
	457.404	0.399583	0.632126
	459.302	0.388535	0.623326
	461.201	0.121882	0.349117
	463.1	-0.0589275	0.24275
	464.998	0.416508	0.645375
	466.897	0.628662	0.792882
	468.795	1.05741	1.0283
	470.694	0.862924	0.928937
	472.593	0.819704	0.905375
	474.491	1.11163	1.05434
	476.39	1.21684	1.1031
	478.289	0.814056	0.902251
	480.187	0.520944	0.721765
	482.086	0.194981	0.441567
	483.984	0.508955	0.713411
	485.883	0.297873	0.545777
	487.782	0.807041	0.898355
	489.68	1.48207	1.2174
	491.579	1.35571	1.16435
	493.478	0.670599	0.818901
	495.376	0.419715	0.647854
	497.275	0.200598	0.447882
	499.173	-0.178343	0.422307
	501.072	-0.184086	0.429053
	502.971	0.113697	0.33719
	504.869	0.469368	0.685104
	506.768	0.169628	0.41186
	508.666	0.130267	0.360925
	510.565	0.393222	0.627074
	512.464	1.03824	1.01894
	514.362	1.15806	1.07613
	516.261	0.642809	0.801754
	518.16	0.227156	0.476609
	520.058	0.142444	0.377417
	521.957	0.00399255	0.0631866
	523.855	0.259288	0.509203
	525.754	0.766248	0.875356
	527.653	1.20113	1.09596
	529.551	1.18022	1.08638
	531.45	1.45471	1.20612
	533.349	1.5449	1.24294
	535.247	1.41637	1.19011
	537.146	1.10278	1.05013
	539.044	0.597941	0.773266
	540.943	0.298939	0.546753
	542.842	-0.150674	0.388168
	544.74	-0.0566894	0.238095
	546.639	9.06511e-05	0.00952109
	548.537	0.739233	0.859787
	550.436	0.882823	0.939586
	552.335	0.990562	0.99527
	554.233	0.514808	0.717501
	556.132	0.517123	0.719113
	558.031	0.0760979	0.275858
	559.929	0.131736	0.362955
	561.828	0.605664	0.778244
	563.726	0.372469	0.610303
	565.625	0.0983059	0.313538
	567.524	0.131134	0.362125
	569.422	0.468139	0.684207
	571.321	1.27962	1.1312
	573.22	1.8401	1.3565
	575.118	1.90045	1.37857
	577.017	1.60596	1.26727
	578.915	1.41345	1.18888
	580.814	1.39482	1.18103
	582.713	1.70782	1.30684
	584.611	2.10526	1.45095
	586.51	1.75672	1.32541
	588.408	1.36134	1.16677
	590.307	0.873887	0.934819
	592.206	0.973512	0.986667
	594.104	1.15936	1.07674
	596.003	1.20929	1.09968
	597.902	1.45826	1.20758
	599.8	1.50517	1.22686
	601.699	2.18282	1.47744
	603.597	2.55281	1.59775
	605.496	2.74816	1.65776
	607.395	2.62656	1.62067
	609.293	2.22786	1.4926
	611.192	1.47364	1.21393
	613.091	0.622627	0.789067
	614.989	0.0235473	0.153451
	616.888	-0.459594	0.677933
	618.786	-0.251664	0.501661
	620.685	-0.044723	0.211478
	622.584	0.0971111	0.311627
	624.482	0.170693	0.41315
	626.381	0.154845	0.393504
	628.279	0.0440841	0.209962
	630.178	0.237051	0.486878
	632.077	1.11679	1.05678
	633.975	1.81771	1.34822
	635.874	2.02764	1.42395
	637.773	1.76889	1.33
	639.671	1.70094	1.3042
	641.57	2.463	1.56939
	643.468	3.33448	1.82605
	645.367	4.33622	2.08236
	647.266	6.14254	2.47841
	649.164	7.2321	2.68926
	651.063	7.71371	2.77736
	652.962	7.00941	2.64753
	654.86	5.97011	2.44338
	656.759	5.16237	2.27208
	658.657	4.11059	2.02746
	660.556	3.06337	1.75025
	662.455	2.22347	1.49113
	664.353	2.28105	1.51031
	666.252	2.6414	1.62524
	668.15	2.92235	1.70949
	670.049	3.45141	1.8578
	671.948	4.19893	2.04913
	673.846	5.88833	2.42659
	675.745	8.03256	2.83418
	677.644	11.3162	3.36395
	679.542	15.4312	3.92826
	681.441	21.5166	4.6386
	683.339	29.5345	5.43457
	685.238	37.4744	6.12163
	687.137	45.1282	6.71775
	689.035	50.8727	7.13251
	690.934	51.7269	7.19214
	692.833	49.6266	7.04461
	694.731	45.2772	6.72883
	696.63	43.5583	6.59987
	698.528	45.188	6.7222
	700.427	51.7816	7.19595
	702.326	65.3301	8.0827
	704.224	84.0636	9.16862
	706.123	111.771	10.5722
	708.021	143.046	11.9602
	709.92	173.325	13.1653
	711.819	198.561	14.0912
	713.717	210.064	14.4936
	715.616	208.64	14.4444
	717.515	194.311	13.9395
	719.413	170.343	13.0515
	721.312	139.501	11.811
	723.21	107.237	10.3555
	725.109	78.4758	8.85866
	727.008	56.8747	7.54153
	728.906	41.7192	6.45904
	730.805	30.7483	5.54512
	732.704	23.3681	4.83406
	734.602	17.9307	4.23446
	736.501	14.5688	3.8169
	738.399	11.8566	3.44335
	740.298	10.1356	3.18365
	742.197	8.71097	2.95144
	744.095	7.59886	2.7566
	745.994	6.51077	2.55162
	747.892	5.44839	2.33418
	749.791	4.34378	2.08417
	751.69	3.64019	1.90793
	753.588	3.40669	1.84572
	755.487	3.25246	1.80346
	757.386	2.59188	1.60993
	759.284	1.86543	1.36581
	761.183	1.00715	1.00357
	763.081	0.497036	0.705008
	764.98	0.20896	0.457122
	766.879	0.755508	0.869199
	768.777	1.30578	1.14271
	770.676	0.88787	0.942268
	772.575	0.553487	0.743967
	774.473	0.446676	0.668338
	776.372	0.75904	0.871229
	778.27	0.80376	0.896527
	780.169	0.344048	0.586556
	782.068	-0.360612	0.60051
	783.966	-0.369164	0.607588
	785.865	-0.140362	0.374649
	787.764	-0.0264146	0.162526
	789.662	-0.341792	0.58463
	791.561	-0.11665	0.34154
	793.459	0.644452	0.802778
	795.358	1.03313	1.01643
	797.257	1.19731	1.09422
	799.155	0.9472	0.973242
	801.054	0.71357	0.844731
	802.952	1.00494	1.00247
	804.851	1.16382	1.07881
	806.75	1.50251	1.22577
	808.648	1.34664	1.16045
	810.547	1.62619	1.27522
	812.446	1.42518	1.19381
	814.344	1.17519	1.08406
	816.243	0.665735	0.815926
	818.141	0.346038	0.58825
	820.04	0.274895	0.524304
	821.939	0.406618	0.637666
	823.837	0.504076	0.709983
	825.736	0.301293	0.548902
	827.635	0.047769	0.218561
	829.533	0.0157592	0.125536
	831.432	0.220481	0.469554
	833.33	0.735229	0.857455
	835.229	1.11118	1.05413
	837.128	1.01504	1.00749
	839.026	0.421409	0.64916
	840.925	0.243764	0.493725
	842.823	0.516213	0.718479
	844.722	0.629049	0.793126
	846.621	0.674819	0.821474
	848.519	0.570155	0.755086
	850.418	0.671263	0.819306
	852.317	0.555592	0.74538
	854.215	0.558207	0.747133
	856.114	0.738291	0.859239
	858.012	0.747373	0.864508
	859.911	0.892758	0.944859
	861.81	0.948964	0.974148
	863.708	0.681242	0.825374
	865.607	0.447867	0.669228
	867.506	0.162498	0.403111
	869.404	-0.272966	0.522462
	871.303	-0.567676	0.753443
	873.201	-0.62411	0.790006
	875.1	-0.676199	0.822313
	876.999	-0.867917	0.93162
	878.897	-0.981565	0.99074
	880.796	-1.24997	1.11802
	882.694	-1.40317	1.18456
	884.593	-1.22777	1.10805
	886.492	-0.840177	0.916612
	888.39	-0.753181	0.86786
	890.289	-0.67785	0.823316
	892.188	-0.356655	0.597206
	894.086	0.0207586	0.144078
	895.985	0.818807	0.904879
	897.883	1.90083	1.3787
	899.782	2.83578	1.68398
	901.681	4.02021	2.00505
	903.579	4.47255	2.11484
	905.478	5.69721	2.38688
	907.377	6.33422	2.51679
	909.275	7.45515	2.73041
	911.174	8.19809	2.86323
	913.072	9.25311	3.04189
	914.971	10.6718	3.26678
	916.87	12.6337	3.55439
	918.768	15.8042	3.97545
	920.667	20.1693	4.49102
	922.565	28.1971	5.31009
	924.464	39.572	6.29063
	926.363	58.9301	7.67659
	928.261	89.971	9.48531
	930.16	141.937	11.9137
	932.059	231.241	15.2066
	933.957	362.764	19.0464
	935.856	531.283	23.0496
	937.754	718.553	26.8058
	939.653	892.418	29.8734
	941.552	1009.46	31.772
	943.45	1071.49	32.7337
	945.349	1066.09	32.651
	947.248	1021.06	31.954
	949.146	943.425	30.7152
	951.045	835.082	28.8978
	952.943	730.356	27.0251
	954.842	633.278	25.165
	956.741	565.577	23.7819
	958.639	538.308	23.2015
	960.538	544.296	23.3301
	962.436	571.595	23.9081
	964.335	612.01	24.7388
	966.234	652.184	25.5379
	968.132	687.336	26.2171
	970.031	720.177	26.8361
	971.93	752.604	27.4336
	973.828	769.045	27.7317
	975.727	764.581	27.6511
	977.625	726.335	26.9506
	979.524	673.801	25.9577
	981.423	605.802	24.613
	983.321	539.216	23.221
	985.22	470.826	21.6985
	987.119	408.36	20.2079
	989.017	351.599	18.751
	990.916	300.657	17.3395
	992.814	256.578	16.0181
	994.713	220.234	14.8403
	996.612	189.525	13.7668
	998.51	166.47	12.9023
	1000.41	145.605	12.0667
	1002.31	129.347	11.3731
	1004.21	114.751	10.7122
	1006.1	100.73	10.0364
	1008	86.5198	9.3016
	1009.9	74.3338	8.62171
	1011.8	62.114	7.88124
	1013.7	51.2921	7.16185
	1015.6	41.2903	6.42575
	1017.5	31.8748	5.64578
	1019.4	25.2257	5.02252
	1021.29	18.2394	4.27076
	1023.19	13.2495	3.63998
	1025.09	9.26146	3.04326
	1026.99	6.28644	2.50728
	1028.89	3.91322	1.97819
	1030.79	1.029	1.0144
	1032.69	-0.548309	0.740479
	1034.58	-1.27239	1.128
	1036.48	-1.82986	1.35272
	1038.38	-2.28612	1.51199
	1040.28	-2.94059	1.71482
	1042.18	-2.89679	1.702
	1044.08	-2.65278	1.62874
	1045.98	-1.72312	1.31268
	1047.87	-1.04921	1.02431
	1049.77	-0.395526	0.628909
	1051.67	0.12687	0.356188
	1053.57	0.50342	0.709521
	1055.47	1.11384	1.05539
	1057.37	1.13843	1.06697
	1059.27	1.3226	1.15004
	1061.16	1.40711	1.18622
	1063.06	2.45885	1.56807
	1064.96	3.44097	1.85498
	1066.86	4.40478	2.09876
	1068.76	5.50906	2.34714
	1070.66	6.78065	2.60397
	1072.56	8.48387	2.91271
	1074.46	8.95477	2.99245
	1076.35	9.75436	3.1232
	1078.25	9.74444	3.12161
	1080.15	10.1759	3.18996
	1082.05	10.9881	3.31483
	1083.95	12.1877	3.49109
	1085.85	13.6248	3.69118
	1087.75	15.1162	3.88795
	1089.64	16.5338	4.06618
	1091.54	18.3608	4.28495
	1093.44	20.5279	4.53077
	1095.34	23.067	4.80282
	1097.24	25.9916	5.0982
	1099.14	28.889	5.37485
	1101.04	31.9245	5.65018
	1102.93	34.562	5.87895
	1104.83	37.7693	6.14567
	1106.73	40.9269	6.39741
	1108.63	44.755	6.68992
	1110.53	48.7847	6.98461
	1112.43	52.6265	7.25441
	1114.33	55.653	7.46009
	1116.22	58.6075	7.65555
	1118.12	60.2528	7.76227
	1120.02	61.5708	7.8467
	1121.92	60.7728	7.79569
	1123.82	60.4249	7.77334
	1125.72	59.1824	7.69301
	1127.62	58.5929	7.6546
	1129.51	56.0848	7.48898
	1131.41	53.1321	7.28917
	1133.31	49.3537	7.02522
	1135.21	46.2174	6.79834
	1137.11	42.5519	6.52318
	1139.01	38.5803	6.21131
	1140.91	34.8567	5.90396
	1142.81	30.6754	5.53853
	1144.7	26.9586	5.19217
	1146.6	22.9046	4.78588
	1148.5	19.7246	4.44124
	1150.4	16.4096	4.05088
	1152.3	14.1912	3.76712
	1154.2	11.9497	3.45683
	1156.1	9.74193	3.12121
	1157.99	7.67402	2.7702
	1159.89	5.69511	2.38644
	1161.79	4.51649	2.1252
	1163.69	2.94577	1.71632
	1165.59	1.94559	1.39484
	1167.49	0.880978	0.938604
	1169.39	0.491123	0.700802
	1171.28	0.802645	0.895904
	1173.18	0.709045	0.842048
	1175.08	0.903343	0.950444
	1176.98	0.693648	0.832855
	1178.88	0.989503	0.994737
	1180.78	1.30412	1.14198
	1182.68	1.92182	1.3863
	1184.57	2.24077	1.49692
	1186.47	1.61506	1.27085
	1188.37	1.10196	1.04974
	1190.27	0.0908576	0.301426
	1192.17	-0.0222869	0.149288
	1194.07	-0.530197	0.728146
	1195.97	-0.330898	0.575237
	1197.87	1.01179	1.00588
	1199.76	2.10617	1.45127
	1201.66	4.1567	2.0388
	1203.56	6.22863	2.49572
	1205.46	9.83121	3.13548
	1207.36	14.9487	3.86635
	1209.26	21.4847	4.63516
	1211.16	33.0029	5.74481
	1213.05	47.6885	6.90568
	1214.95	72.0651	8.48912
	1216.85	100.974	10.0486
	1218.75	137.445	11.7237
	1220.65	185.957	13.6366
	1222.55	228.936	15.1306
	1224.45	277.994	16.6731
	1226.34	329.008	18.1386
	1228.24	365.993	19.1309
	1230.14	407.176	20.1786
	1232.04	447.918	21.1641
	1233.94	469.126	21.6593
	1235.84	474.888	21.7919
	1237.74	464.398	21.5499
	1239.63	432.452	20.7955
	1241.53	389.014	19.7235
	1243.43	346.256	18.6079
	1245.33	300.31	17.3295
	1247.23	255.139	15.9731
	1249.13	211.546	14.5446
	1251.03	178.586	13.3636
	1252.93	148.245	12.1756
	1254.82	128.243	11.3245
	1256.72	110.926	10.5322
	1258.62	98.5717	9.92833
	1260.52	89.1241	9.44056
	1262.42	80.5755	8.97639
	1264.32	74.6707	8.64122
	1266.22	67.7823	8.233
	1268.11	62.5566	7.90927
	1270.01	58.3119	7.63622
	1271.91	54.8811	7.40817
	1273.81	52.9885	7.27932
	1275.71	51.0535	7.14517
	1277.61	50.3005	7.09228
	1279.51	49.1281	7.00914
	1281.4	49.0289	7.00206
	1283.3	49.5486	7.03908
	1285.2	49.4573	7.03259
	1287.1	50.9029	7.13463
	1289	51.1981	7.15528
	1290.9	53.1173	7.28816
	1292.8	54.1902	7.3614
	1294.69	56.3953	7.50968
	1296.59	58.3673	7.63985
	1298.49	59.4436	7.70997
	1300.39	61.2827	7.82832
	1302.29	61.6597	7.85237
	1304.19	62.6184	7.91318
	1306.09	61.9129	7.86848
	1307.99	61.9249	7.86924
	1309.88	61.6054	7.84891
	1311.78	61.0654	7.81444
	1313.68	61.2712	7.82759
	1315.58	60.6523	7.78796
	1317.48	61.1086	7.8172
	1319.38	60.1843	7.75785
	1321.28	60.8177	7.79857
	1323.17	61.1039	7.8169
	1325.07	61.4228	7.83727
	1326.97	60.9782	7.80885
	1328.87	60.0124	7.74676
	1330.77	59.527	7.71537
	1332.67	58.1067	7.62277
	1334.57	56.6809	7.52867
	1336.46	54.51	7.38309
	1338.36	52.1251	7.21977
	1340.26	49.2529	7.01804
	1342.16	46.5989	6.82634
	1344.06	43.7358	6.61331
	1345.96	39.8285	6.31098
	1347.86	36.1831	6.01524
	1349.75	31.9076	5.64868
	1351.65	28.7369	5.36068
	1353.55	25.0652	5.00651
	1355.45	22.3739	4.73011
	1357.35	19.5274	4.41898
	1359.25	16.5953	4.07373
	1361.15	14.2574	3.7759
	1363.05	11.776	3.43161
	1364.94	9.99797	3.16196
	1366.84	8.42174	2.90202
	1368.74	6.65115	2.57898
	1370.64	5.33215	2.30914
	1372.54	3.45804	1.85958
	1374.44	2.11356	1.45381
	1376.34	0.529692	0.7278
	1378.23	-0.105436	0.324709
	1380.13	-0.663188	0.814364
	1382.03	-1.3804	1.17491
	1383.93	-1.5955	1.26313
	1385.83	-2.32718	1.52551
	1387.73	-2.2471	1.49903
	1389.63	-2.39035	1.54607
	1391.52	-2.46638	1.57047
	1393.42	-1.89804	1.37769
	1395.32	-0.925638	0.962101
	1397.22	0.484984	0.696408
	1399.12	1.9179	1.38488
	1401.02	2.90253	1.70368
	1402.92	3.98528	1.99632
	1404.81	5.43324	2.33093
	1406.71	6.92369	2.63129
	1408.61	8.44496	2.90602
	1410.51	9.91921	3.14948
	1412.41	11.3368	3.36701
	1414.31	12.7499	3.5707
	1416.21	13.7145	3.70331
	1418.11	15.493	3.93611
	1420	16.9396	4.11577
	1421.9	18.4197	4.29182
	1423.8	19.4187	4.40667
	1425.7	19.8726	4.45786
	1427.6	19.979	4.46979
	1429.5	19.8018	4.44992
	1431.4	19.1908	4.38073
	1433.29	17.8962	4.23039
	1435.19	16.3134	4.03898
	1437.09	14.6057	3.82174
	1438.99	13.1961	3.63264
	1440.89	11.9554	3.45766
	1442.79	10.6908	3.26968
	1444.69	8.96983	2.99497
	1446.58	7.10658	2.66582
	1448.48	5.67762	2.38277
	1450.38	4.36758	2.08988
	1452.28	3.30396	1.81768
	1454.18	2.5631	1.60097
	1456.08	2.00734	1.41681
	1457.98	1.60577	1.26719
	1459.87	1.02987	1.01482
	1461.77	0.70717	0.840934
	1463.67	0.596712	0.772472
	1465.57	0.17174	0.414415
	1467.47	-0.12409	0.352265
	1469.37	-0.385285	0.620713
	1471.27	-0.639704	0.799815
	1473.17	-0.908403	0.953102
	1475.06	-0.897471	0.947349
	1476.96	-1.24776	1.11703
	1478.86	-0.951999	0.975705
	1480.76	-0.871955	0.933786
	1482.66	-0.718523	0.847657
	1484.56	-0.491686	0.701203
	1486.46	-0.238767	0.488638
	1488.35	-0.212275	0.460733
	1490.25	-0.217531	0.466402
	1492.15	-0.598114	0.773379
	1494.05	-0.470465	0.685905
	1495.95	-0.343147	0.585787
	1497.85	-0.326684	0.571562
	1499.75	-0.0658909	0.256692
	1501.64	-0.0119216	0.109186
	1503.54	0.486912	0.697791
	1505.44	0.592747	0.769901
	1507.34	0.873326	0.934519
	1509.24	0.652173	0.807572
	1511.14	0.390533	0.624926
	1513.04	-0.24004	0.489939
	1514.93	-0.218323	0.46725
	1516.83	0.602497	0.776207
	1518.73	1.69571	1.30219
	1520.63	2.12841	1.45891
	1522.53	2.25841	1.5028
	1524.43	2.41288	1.55334
	1526.33	2.71425	1.6475
	1528.23	2.96319	1.72139
	1530.12	2.97502	1.72482
	1532.02	2.99656	1.73106
	1533.92	2.87052	1.69426
	1535.82	2.93012	1.71176
	1537.72	2.83869	1.68484
	1539.62	2.56328	1.60103
	1541.52	2.20917	1.48633
	1543.41	1.81672	1.34786
	1545.31	1.89587	1.37691
	1547.21	1.22694	1.10767
	1549.11	1.05223	1.02578
	1551.01	0.815102	0.90283
	1552.91	1.1531	1.07383
	1554.81	1.11411	1.05551
	1556.7	1.18841	1.09014
	1558.6	0.823113	0.907256
	1560.5	0.742514	0.861693
	1562.4	0.315083	0.561322
	1564.3	0.0947439	0.307805
	1566.2	-0.0068915	0.0830151
	1568.1	-0.0753386	0.274479
	1569.99	-0.170121	0.412457
	1571.89	-0.343753	0.586304
	1573.79	-0.135374	0.367932
	1575.69	0.114795	0.338814
	1577.59	0.148635	0.385532
	1579.49	0.294168	0.542372
	1581.39	0.379625	0.616137
	1583.29	0.577208	0.759742
	1585.18	0.145537	0.381494
	1587.08	0.0173623	0.131766
	1588.98	0.0882534	0.297075
	1590.88	0.534004	0.730756
	1592.78	0.993825	0.996908
	1594.68	1.45682	1.20699
	1596.58	1.84282	1.3575
	1598.47	1.89137	1.37527
	1600.37	2.15246	1.46713
	1602.27	2.55689	1.59903
	1604.17	2.89444	1.70131
	1606.07	3.17877	1.78291
	1607.97	3.56875	1.88911
	1609.87	3.82942	1.95689
	1611.76	3.95639	1.98907
	1613.66	4.34808	2.08521
	1615.56	5.18228	2.27646
	1617.46	5.7752	2.40317
	1619.36	6.70267	2.58895
	1621.26	7.53513	2.74502
	1623.16	8.8124	2.96857
	1625.05	9.75913	3.12396
	1626.95	10.5639	3.25022
	1628.85	11.2525	3.35448
	1630.75	12.1917	3.49166
	1632.65	12.9658	3.6008
	1634.55	14.0696	3.75095
	1636.45	14.6813	3.83162
	1638.34	15.1743	3.89542
	1640.24	15.6225	3.95253
	1642.14	15.9654	3.99567
	1644.04	16.2839	4.03533
	1645.94	16.6593	4.08158
	1647.84	16.8265	4.10201
	1649.74	16.5583	4.06919
	1651.64	16.1046	4.01305
	1653.53	16.3728	4.04633
	1655.43	16.6955	4.08601
	1657.33	16.2503	4.03116
	1659.23	16.0403	4.00503
	1661.13	15.9382	3.99226
	1663.03	16.0781	4.00975
	1664.93	16.7048	4.08715
	1666.82	17.5737	4.1921
	1668.72	19.1043	4.37084
	1670.62	21.5655	4.64387
	1672.52	24.1267	4.9119
	1674.42	27.133	5.20893
	1676.32	30.7355	5.54396
	1678.22	35.1707	5.93049
	1680.11	40.3194	6.34975
	1682.01	45.1983	6.72297
	1683.91	50.6329	7.11568
	1685.81	56.1794	7.49529
	1687.71	60.58	7.78331
	1689.61	63.5324	7.97072
	1691.51	64.5358	8.03342
	1693.4	61.5284	7.84401
	1695.3	56.564	7.5209
	1697.2	48.5441	6.96736
	1699.1	40.5754	6.36989
	1701	32.5058	5.70139
	1702.9	26.7372	5.17081
	1704.8	21.4758	4.6342
	1706.7	17.3159	4.16124
	1708.59	14.1979	3.768
	1710.49	11.4969	3.3907
	1712.39	9.92709	3.15073
	1714.29	8.81178	2.96846
	1716.19	7.03084	2.65157
	1718.09	5.76096	2.4002
	1719.99	4.71657	2.17177
	1721.88	3.6418	1.90835
	1723.78	3.18282	1.78405
	1725.68	2.39001	1.54596
	1727.58	1.98007	1.40715
	1729.48	1.29408	1.13758
	1731.38	0.888828	0.942777
	1733.28	0.465209	0.682062
	1735.17	0.30696	0.554039
	1737.07	0.0698965	0.264379
	1738.97	0.234389	0.484138
	1740.87	0.0810408	0.284677
	1742.77	0.162824	0.403515
	1744.67	-0.0777564	0.278848
	1746.57	-0.499355	0.706651
	1748.46	-0.714892	0.845513
	1750.36	-0.765518	0.874939
	1752.26	-0.697258	0.83502
	1754.16	-0.679266	0.824176
	1756.06	-0.797421	0.892984
	1757.96	-1.18195	1.08717
	1759.86	-1.15132	1.073
	1761.76	-0.825088	0.908344
	1763.65	-0.582735	0.763371
	1765.55	-0.502677	0.708997
	1767.45	-0.0727115	0.269651
	1769.35	0.388165	0.623029
	1771.25	0.850347	0.922143
	1773.15	1.1879	1.08991
	1775.05	1.29601	1.13842
	1776.94	1.68837	1.29937
	1778.84	2.06336	1.43644
	1780.74	2.92493	1.71024
	1782.64	3.55875	1.88646
	1784.54	4.30138	2.07398
	1786.44	4.79954	2.19078
	1788.34	5.16751	2.27322
	1790.23	5.65499	2.37802
	1792.13	6.00194	2.44989
	1794.03	6.64796	2.57836
	1795.93	7.06131	2.65731
	1797.83	8.27111	2.87595
	1799.73	9.7832	3.12781
	1801.63	11.6419	3.41202
	1803.52	14.0568	3.74924
	1805.42	16.7172	4.08867
	1807.32	19.9207	4.46326
	1809.22	23.4274	4.84018
	1811.12	28.0012	5.29162
	1813.02	33.1457	5.75723
	1814.92	38.2669	6.18603
	1816.82	43.2408	6.57577
	1818.71	47.9403	6.9239
	1820.61	53.1988	7.29375
	1822.51	58.9509	7.67795
	1824.41	65.8285	8.11347
	1826.31	73.6124	8.57977
	1828.21	82.5099	9.0835
	1830.11	91.9783	9.59053
	1832	101.854	10.0923
	1833.9	110.645	10.5188
	1835.8	116.868	10.8106
	1837.7	119.42	10.9279
	1839.6	118.091	10.867
	1841.5	113.975	10.6759
	1843.4	106.665	10.3279
	1845.29	98.0161	9.90031
	1847.19	87.7769	9.36893
	1849.09	77.9837	8.83084
	1850.99	68.5494	8.27946
	1852.89	60.8837	7.8028
	1854.79	54.9586	7.41341
	1856.69	50.4966	7.10609
	1858.58	46.5769	6.82473
	1860.48	43.5493	6.59919
	1862.38	40.8065	6.388
	1864.28	38.3547	6.19311
	1866.18	35.8264	5.98551
	1868.08	33.4942	5.78742
	1869.98	31.1093	5.57757
	1871.88	28.4022	5.32937
	1873.77	25.2081	5.02077
	1875.67	22.2119	4.71295
	1877.57	18.9775	4.35632
	1879.47	16.3584	4.04455
	1881.37	14.2	3.76829
	1883.27	12.3033	3.50761
	1885.17	10.6764	3.26748
	1887.06	9.42461	3.06995
	1888.96	9.20447	3.03389
	1890.86	8.3068	2.88215
	1892.76	7.67091	2.76964
	1894.66	7.21453	2.68599
	1896.56	7.27792	2.69776
	1898.46	7.37143	2.71504
	1900.35	7.13137	2.67046
	1902.25	7.55468	2.74858
	1904.15	7.86715	2.80484
	1906.05	8.00131	2.82866
	1907.95	8.1102	2.84784
	1909.85	8.644	2.94007
	1911.75	8.8278	2.97116
	1913.64	9.18157	3.03011
	1915.54	9.22039	3.03651
	1917.44	9.52695	3.08658
	1919.34	9.77668	3.12677
	1921.24	10.0486	3.16996
	1923.14	10.3699	3.22023
	1925.04	11.0333	3.32165
	1926.94	11.5816	3.40317
	1928.83	12.4765	3.53222
	1930.73	13.0625	3.61421
	1932.63	13.7884	3.71327
	1934.53	14.347	3.78774
	1936.43	14.9942	3.87224
	1938.33	15.8098	3.97616
	1940.23	16.325	4.04043
	1942.12	16.4067	4.05051
	1944.02	15.9083	3.98852
	1945.92	15.4562	3.93143
	1947.82	14.824	3.8502
	1949.72	13.7207	3.70415
	1951.62	12.4163	3.52368
	1953.52	10.7244	3.27482
	1955.41	9.0639	3.01063
	1957.31	7.02614	2.65069
	1959.21	5.81564	2.41156
	1961.11	4.46512	2.11308
	1963.01	3.49346	1.86908
	1964.91	2.3482	1.53238
	1966.81	1.99834	1.41363
	1968.7	1.59221	1.26183
	1970.6	1.22912	1.10866
	1972.5	0.835057	0.913815
	1974.4	0.774399	0.88
	1976.3	0.721359	0.849328
	1978.2	0.862642	0.928785
	1980.1	1.16172	1.07783
	1982	1.5203	1.233
	1983.89	2.20711	1.48563
	1985.79	2.81562	1.67798
	1987.69	3.68199	1.91885
	1989.59	4.92091	2.21831
	1991.49	7.03745	2.65282
	1993.39	9.58499	3.09596
	1995.29	12.1447	3.48493
	1997.18	15.5222	3.93982
	1999.08	19.3887	4.40326
	2000.98	23.5178	4.84951
	2002.88	27.7118	5.2642
	2004.78	30.8158	5.5512
	2006.68	33.5404	5.79141
	2008.58	35.2438	5.93665
	2010.47	36.7935	6.06576
	2012.37	37.216	6.10049
	2014.27	37.3408	6.11071
	2016.17	36.8526	6.07064
	2018.07	36.5575	6.04628
	2019.97	35.8076	5.98395
	2021.87	34.6988	5.89057
	2023.76	33.2997	5.77059
	2025.66	31.9055	5.6485
	2027.56	30.8817	5.55713
	2029.46	29.7697	5.45616
	2031.36	28.9447	5.38002
	2033.26	28.3838	5.32764
	2035.16	28.3398	5.32351
	2037.06	28.0182	5.29322
	2038.95	27.8085	5.27338
	2040.85	27.9048	5.2825
	2042.75	27.8733	5.27951
	2044.65	27.7654	5.26928
	2046.55	27.7147	5.26448
	2048.45	27.9165	5.28361
	2050.35	27.9704	5.28871
	2052.24	27.888	5.28091
	2054.14	28.0088	5.29233
	2056.04	28.2631	5.3163
	2057.94	28.1895	5.30938
	2059.84	28.0589	5.29706
	2061.74	27.9618	5.28789
	2063.64	27.3155	5.22642
	2065.53	26.8467	5.18138
	2067.43	26.1676	5.11543
	2069.33	25.3404	5.03392
	2071.23	24.7895	4.9789
	2073.13	23.9928	4.89825
	2075.03	23.209	4.81757
	2076.93	22.3419	4.72672
	2078.82	21.7516	4.66386
	2080.72	21.4435	4.63072
	2082.62	21.0094	4.5836
	2084.52	19.8584	4.45627
	2086.42	19.0541	4.3651
	2088.32	18.4374	4.29388
	2090.22	17.8529	4.22527
	2092.12	17.0797	4.13276
	2094.01	16.2123	4.02644
	2095.91	15.2704	3.90773
	2097.81	14.9005	3.86011
	2099.71	14.6026	3.82133
	2101.61	14.0119	3.74324
	2103.51	13.4213	3.66351
	2105.41	13.0372	3.61071
	2107.3	12.5897	3.54819
	2109.2	12.0757	3.47502
	2111.1	11.4212	3.37953
	2113	10.8075	3.28748
	2114.9	10.3247	3.21321
	2116.8	9.71087	3.11623
	2118.7	9.00323	3.00054
	2120.59	8.50209	2.91583
	2122.49	7.96792	2.82275
	2124.39	7.46728	2.73263
	2126.29	6.55358	2.56
	2128.19	6.25787	2.50157
	2130.09	5.58719	2.36372
	2131.99	5.26467	2.29449
	2133.88	4.36352	2.0889
	2135.78	3.62374	1.90361
	2137.68	2.83115	1.6826
	2139.58	2.63466	1.62317
	2141.48	2.45031	1.56535
	2143.38	2.31044	1.52001
	2145.28	2.07876	1.44179
	2147.17	1.96727	1.40259
	2149.07	1.72798	1.31453
	2150.97	1.38666	1.17756
	2152.87	1.08796	1.04305
	2154.77	1.09991	1.04877
	2156.67	1.05866	1.02891
	2158.57	1.01095	1.00546
	2160.47	0.834873	0.913714
	2162.36	0.558955	0.747633
	2164.26	0.676894	0.822736
	2166.16	0.53036	0.728258
	2168.06	0.57601	0.758953
	2169.96	0.3023	0.549818
	2171.86	0.457835	0.676635
	2173.76	0.597131	0.772742
	2175.65	0.971837	0.985818
	2177.55	1.16873	1.08108
	2179.45	0.966678	0.983198
	2181.35	0.702731	0.838291
	2183.25	0.227465	0.476933
	2185.15	-0.109489	0.330892
	2187.05	-0.513525	0.716607
	2188.94	-0.597333	0.772873
	2190.84	-0.569468	0.754631
	2192.74	-0.61095	0.781633
	2194.64	-0.395462	0.628857
	2196.54	-0.208918	0.457075
	2198.44	-0.265634	0.515397
	2200.34	-0.280748	0.529857
	2202.23	-0.251993	0.501989
	2204.13	-0.21547	0.464188
	2206.03	-0.147895	0.384571
	2207.93	-0.136403	0.369327
	2209.83	0.0360046	0.189749
	2211.73	0.532934	0.730023
	2213.63	0.956035	0.97777
	2215.53	1.41224	1.18838
	2217.42	2.01058	1.41795
	2219.32	2.91844	1.70835
	2221.22	3.97889	1.99472
	2223.12	4.95753	2.22655
	2225.02	6.18712	2.48739
	2226.92	7.39423	2.71923
	2228.82	8.05304	2.83779
	2230.71	7.98631	2.82601
	2232.61	7.39422	2.71923
	2234.51	6.49067	2.54768
	2236.41	5.42356	2.32885
	2238.31	4.58511	2.14129
	2240.21	3.55965	1.8867
	2242.11	2.79597	1.67211
	2244	2.01292	1.41877
	2245.9	1.42654	1.19438
	2247.8	0.99234	0.996163
	2249.7	0.705173	0.839746
	2251.6	0.641202	0.800751
	2253.5	0.508413	0.713031
	2255.4	0.391547	0.625737
	2257.29	0.626939	0.791795
	2259.19	0.780783	0.883619
	2261.09	0.799187	0.893972
	2262.99	0.51773	0.719534
	2264.89	0.387956	0.622861
	2266.79	0.357655	0.598042
	2268.69	0.143845	0.379268
	2270.59	0.0935263	0.305821
	2272.48	-0.119491	0.345675
	2274.38	-0.124639	0.353043
	2276.28	0.0103539	0.101754
	2278.18	0.353739	0.59476
	2280.08	0.752196	0.867292
	2281.98	0.818293	0.904596
	2283.88	0.655525	0.809645
	2285.77	0.573672	0.757411
	2287.67	0.685213	0.827776
	2289.57	0.597565	0.773023
	2291.47	0.328722	0.573343
	2293.37	0.144085	0.379586
	2295.27	0.0287482	0.169553
	2297.17	0.217407	0.466269
	2299.06	0.441571	0.664508
	2300.96	0.593943	0.770677
	2302.86	0.385798	0.621127
	2304.76	0.385907	0.621214
	2306.66	0.283208	0.532173
	2308.56	0.276691	0.526014
	2310.46	0.416911	0.645687
	2312.35	0.696848	0.834774
	2314.25	0.447601	0.66903
	2316.15	0.103134	0.321145
	2318.05	0.0717964	0.267949
	2319.95	-0.0122337	0.110606
	2321.85	0.0238403	0.154403
	2323.75	-0.106979	0.327076
	2325.65	-0.0326095	0.180581
	2327.54	-0.0902325	0.300387
	2329.44	-0.236624	0.48644
	2331.34	-0.151442	0.389156
	2333.24	0.0522369	0.228554
	2335.14	0.217898	0.466796
	2337.04	0.352731	0.593912
	2338.94	0.42279	0.650223
	2340.83	0.410178	0.640452
	2342.73	0.210794	0.459123
	2344.63	0.13848	0.37213
	2346.53	0.344085	0.586588
	2348.43	0.770002	0.877498
	2350.33	0.983371	0.991651
	2352.23	0.835424	0.914015
	2354.12	0.377403	0.614332
	2356.02	0.0518498	0.227706
	2357.92	-0.0749029	0.273684
	2359.82	-0.0208978	0.144561
	2361.72	0.16861	0.410622
	2363.62	0.38985	0.62438
	2365.52	0.55272	0.743451
	2367.41	0.468267	0.6843
	2369.31	0.339769	0.582897
	2371.21	0.106533	0.326394
	2373.11	0.0308159	0.175544
	2375.01	-0.0373342	0.193221
	2376.91	0.257014	0.506965
	2378.81	0.307024	0.554097
	2380.71	0.298626	0.546467
	2382.6	0.139974	0.37413
	2384.5	0.201447	0.448828
	2386.4	0.376752	0.613802
	2388.3	0.271911	0.521451
	2390.2	0.124263	0.352509
	2392.1	0.109455	0.330841
	2394	0.330958	0.575289
	2395.89	0.394803	0.628334
	2397.79	0.311608	0.558218
	2399.69	0.0401179	0.200295
	2401.59	-0.320403	0.566042
	2403.49	-0.361536	0.601279
	2405.39	-0.332722	0.576821
	2407.29	0.0312354	0.176736
	2409.18	0.310576	0.557293
	2411.08	0.293168	0.541449
	2412.98	0.143774	0.379175
	2414.88	-0.00233621	0.0483343
	2416.78	0.120247	0.346766
	2418.68	-0.0605117	0.245991
	2420.58	-0.0694614	0.263555
	2422.47	-0.344451	0.586899
	2424.37	0.233047	0.482749
