Generated file C:/Users/didvk/OneDrive - University of Florida/UF_Isaiah_06-16-2020-Tue/Analysis/Re0.1Mo0.9B2/Re0.1Mo0.9B2_HPXRD_run2_300_20220710 - Copy/mask&dat&fxye_4position/18_ReMoB2_60p0GPa_300psi_release_P1_C4_D1w_126.fxye using DIOPTAS
# == pyFAI calibration ==
# Distance Sample to Detector: 0.2103851508954585 m
# PONI: 8.889e-02, 8.665e-02 m
# Rotations: 0.008634 -0.000915 0.000000 rad
# 
# == Fit2d calibration ==
# Distance Sample-beamCenter: 210.393 mm
# Center: x=493.236, y=515.685 pix
# Tilt: 0.497 deg  TiltPlanRot: -173.953 deg
# 
# Detector Detector	 Spline= None	 PixelSize= 1.720e-04, 1.720e-04 m
#    Detector has a mask: False 
#    Detector has a dark current: False 
#    detector has a flat field: False 
# 
# Wavelength: 4.133e-11 m
# Mask applied: None
# Dark current applied: None
# Flat field applied: None
# Polarization factor: None
# Normalization factor: None
BANK	1	1129	1129 CONS	282.731	1.89862 0.4133 0.0 FXYE
	282.731	0.0633597	0.251714
	284.629	0.86705	0.931155
	286.528	1.24375	1.11524
	288.427	1.09556	1.04669
	290.325	0.709676	0.842423
	292.224	0.507299	0.71225
	294.122	0.142437	0.377408
	296.021	1.19769	1.09439
	297.92	1.81232	1.34622
	299.818	2.31676	1.52209
	301.717	1.85869	1.36334
	303.616	1.00575	1.00287
	305.514	0.699192	0.836177
	307.413	0.687066	0.828894
	309.311	1.73625	1.31767
	311.21	1.99463	1.41231
	313.109	1.42807	1.19502
	315.007	0.501153	0.707922
	316.906	0.3203	0.565951
	318.805	0.169627	0.411858
	320.703	0.643458	0.802158
	322.602	1.01837	1.00914
	324.5	0.984149	0.992043
	326.399	1.16215	1.07803
	328.298	1.70372	1.30526
	330.196	2.27733	1.50908
	332.095	2.9369	1.71374
	333.993	3.37373	1.83677
	335.892	4.01218	2.00304
	337.791	4.46815	2.1138
	339.689	5.22615	2.28608
	341.588	6.68792	2.5861
	343.487	8.42478	2.90255
	345.385	10.9864	3.31457
	347.284	14.796	3.84655
	349.182	19.5085	4.41684
	351.081	23.9594	4.89484
	352.98	26.4388	5.14187
	354.878	25.3775	5.03761
	356.777	22.292	4.72144
	358.676	17.1695	4.14361
	360.574	12.5096	3.53689
	362.473	8.44995	2.90688
	364.371	5.67056	2.38129
	366.27	4.02036	2.00508
	368.169	2.94288	1.71548
	370.067	2.33377	1.52767
	371.966	1.94407	1.3943
	373.864	2.03299	1.42583
	375.763	2.02135	1.42174
	377.662	2.03135	1.42526
	379.56	2.0837	1.4435
	381.459	1.89506	1.37661
	383.358	1.60778	1.26798
	385.256	1.51251	1.22984
	387.155	1.48913	1.2203
	389.053	1.18771	1.08982
	390.952	1.4131	1.18874
	392.851	1.58611	1.25941
	394.749	1.77543	1.33245
	396.648	1.66879	1.29182
	398.547	0.840195	0.916621
	400.445	0.482538	0.69465
	402.344	0.455027	0.674557
	404.242	0.693494	0.832763
	406.141	0.638146	0.79884
	408.04	-0.0428691	0.207049
	409.938	0.170604	0.413042
	411.837	0.205959	0.453827
	413.735	0.062143	0.249285
	415.634	0.297875	0.545779
	417.533	0.544582	0.737958
	419.431	1.165	1.07935
	421.33	0.946881	0.973078
	423.229	0.693146	0.832554
	425.127	0.338694	0.581975
	427.026	0.34734	0.589356
	428.924	0.164896	0.406073
	430.823	0.857351	0.925933
	432.722	0.685598	0.828008
	434.62	0.275733	0.525103
	436.519	0.779524	0.882907
	438.418	0.855085	0.924708
	440.316	0.671258	0.819304
	442.215	0.0796683	0.282256
	444.113	0.292689	0.541007
	446.012	0.598219	0.773446
	447.911	0.333348	0.577363
	449.809	0.329764	0.574251
	451.708	0.762222	0.873053
	453.606	1.05996	1.02954
	455.505	0.626574	0.791564
	457.404	0.734854	0.857236
	459.302	1.00353	1.00176
	461.201	0.707414	0.841079
	463.1	0.32299	0.568322
	464.998	-0.104491	0.32325
	466.897	-0.157688	0.397099
	468.795	0.463867	0.681078
	470.694	0.842914	0.918103
	472.593	2.0925	1.44655
	474.491	2.4658	1.57029
	476.39	2.26886	1.50627
	478.289	1.49595	1.22309
	480.187	1.07888	1.03869
	482.086	0.740801	0.860698
	483.984	0.55368	0.744097
	485.883	0.298593	0.546437
	487.782	0.321847	0.567316
	489.68	1.02752	1.01367
	491.579	1.29828	1.13942
	493.478	1.92703	1.38817
	495.376	1.03403	1.01687
	497.275	0.195329	0.44196
	499.173	-0.177885	0.421764
	501.072	0.357766	0.598135
	502.971	0.962574	0.981109
	504.869	1.36018	1.16627
	506.768	1.67975	1.29605
	508.666	1.41571	1.18984
	510.565	1.28366	1.13299
	512.464	0.942538	0.970844
	514.362	0.789592	0.88859
	516.261	0.634566	0.796596
	518.16	0.451212	0.671723
	520.058	0.00474286	0.0688685
	521.957	-0.122344	0.349777
	523.855	0.282781	0.531772
	525.754	1.12233	1.0594
	527.653	1.66255	1.2894
	529.551	1.27473	1.12904
	531.45	0.746084	0.863761
	533.349	0.669503	0.818232
	535.247	0.865963	0.930571
	537.146	0.667397	0.816944
	539.044	0.605703	0.778269
	540.943	0.162467	0.403072
	542.842	0.430913	0.656439
	544.74	0.186594	0.431966
	546.639	0.301507	0.549097
	548.537	0.403191	0.634973
	550.436	0.31186	0.558444
	552.335	0.534683	0.73122
	554.233	0.0612458	0.247479
	556.132	-0.157809	0.397252
	558.031	-0.293816	0.542048
	559.929	-0.0356268	0.188751
	561.828	0.386136	0.621398
	563.726	0.702872	0.838375
	565.625	0.898233	0.947752
	567.524	0.373081	0.610803
	569.422	0.0724136	0.269098
	571.321	0.304578	0.551886
	573.22	1.12027	1.05843
	575.118	1.4255	1.19394
	577.017	1.68607	1.29849
	578.915	1.61592	1.27119
	580.814	1.69102	1.30039
	582.713	0.890997	0.943926
	584.611	0.365907	0.604902
	586.51	0.187226	0.432696
	588.408	0.852108	0.923097
	590.307	0.774809	0.880233
	592.206	0.747162	0.864386
	594.104	0.857143	0.92582
	596.003	1.49615	1.22317
	597.902	2.12326	1.45714
	599.8	2.53276	1.59147
	601.699	2.66482	1.63243
	603.597	2.85373	1.6893
	605.496	2.37231	1.54023
	607.395	1.474	1.21408
	609.293	0.839363	0.916167
	611.192	0.432031	0.65729
	613.091	0.545314	0.738454
	614.989	0.578793	0.760784
	616.888	0.51828	0.719917
	618.786	-0.0350047	0.187096
	620.685	0.140231	0.374475
	622.584	0.437488	0.661429
	624.482	0.424169	0.651282
	626.381	0.179918	0.424168
	628.279	0.177715	0.421563
	630.178	0.863787	0.929401
	632.077	1.51967	1.23275
	633.975	2.63331	1.62275
	635.874	4.63531	2.15298
	637.773	7.10244	2.66504
	639.671	9.7224	3.11808
	641.57	12.0964	3.47799
	643.468	13.8089	3.71604
	645.367	14.3926	3.79375
	647.266	12.7509	3.57084
	649.164	10.1874	3.19177
	651.063	7.1763	2.67886
	652.962	4.88786	2.21085
	654.86	2.84367	1.68632
	656.759	2.22622	1.49205
	658.657	2.10145	1.44964
	660.556	2.08202	1.44292
	662.455	2.27681	1.50891
	664.353	2.49638	1.58
	666.252	2.95466	1.71891
	668.15	3.83238	1.95765
	670.049	5.12426	2.26368
	671.948	6.75504	2.59905
	673.846	9.01075	3.00179
	675.745	11.4898	3.38966
	677.644	14.2529	3.77531
	679.542	17.0049	4.1237
	681.441	19.1924	4.38092
	683.339	21.1805	4.60223
	685.238	22.8274	4.77781
	687.137	24.7836	4.97831
	689.035	27.1874	5.21415
	690.934	31.1276	5.57922
	692.833	37.5615	6.12874
	694.731	47.7374	6.90923
	696.63	61.572	7.84678
	698.528	79.2955	8.9048
	700.427	100.069	10.0035
	702.326	122.718	11.0778
	704.224	141.482	11.8946
	706.123	154.872	12.4447
	708.021	156.889	12.5256
	709.92	149.433	12.2243
	711.819	133.663	11.5613
	713.717	113.711	10.6635
	715.616	93.4803	9.66852
	717.515	75.4668	8.68716
	719.413	59.3604	7.70457
	721.312	46.3872	6.81081
	723.21	35.9748	5.9979
	725.109	27.5481	5.24862
	727.008	20.9815	4.58056
	728.906	15.8292	3.97859
	730.805	12.3096	3.5085
	732.704	9.75375	3.1231
	734.602	7.74724	2.78339
	736.501	6.89942	2.62668
	738.399	6.33057	2.51606
	740.298	5.55687	2.3573
	742.197	4.84154	2.20035
	744.095	4.31054	2.07618
	745.994	3.86647	1.96633
	747.892	3.31189	1.81986
	749.791	2.70383	1.64433
	751.69	1.72422	1.3131
	753.588	1.45557	1.20647
	755.487	1.15101	1.07285
	757.386	1.01076	1.00537
	759.284	0.817559	0.90419
	761.183	0.554457	0.744618
	763.081	0.607087	0.779158
	764.98	0.787811	0.887587
	766.879	0.808855	0.899363
	768.777	0.70223	0.837992
	770.676	0.409022	0.639548
	772.575	0.460232	0.678404
	774.473	0.0271876	0.164887
	776.372	-0.0663643	0.257613
	778.27	-0.1836	0.428486
	780.169	-0.381006	0.617257
	782.068	-0.472924	0.687694
	783.966	-0.355015	0.595832
	785.865	-0.216776	0.465592
	787.764	0.0871875	0.295275
	789.662	0.662469	0.813922
	791.561	1.38925	1.17867
	793.459	1.67408	1.29386
	795.358	1.29733	1.139
	797.257	1.12372	1.06005
	799.155	0.66739	0.816939
	801.054	0.634271	0.796412
	802.952	0.596701	0.772464
	804.851	0.756868	0.869982
	806.75	0.807485	0.898602
	808.648	0.596763	0.772504
	810.547	0.265882	0.515638
	812.446	-0.211224	0.459591
	814.344	-0.0752185	0.27426
	816.243	0.626576	0.791565
	818.141	0.967836	0.983787
	820.04	0.866252	0.930727
	821.939	0.370626	0.608791
	823.837	0.0416613	0.204111
	825.736	0.196857	0.443686
	827.635	0.657296	0.810738
	829.533	1.03618	1.01793
	831.432	1.15285	1.07371
	833.33	1.03818	1.01891
	835.229	0.989959	0.994967
	837.128	0.773199	0.879317
	839.026	0.707405	0.841073
	840.925	0.38108	0.617317
	842.823	0.570993	0.755641
	844.722	0.41393	0.643374
	846.621	0.257818	0.507758
	848.519	0.152432	0.390426
	850.418	0.425793	0.652528
	852.317	0.628994	0.793091
	854.215	0.357334	0.597774
	856.114	-0.110063	0.331757
	858.012	-0.158611	0.39826
	859.911	-0.287098	0.535816
	861.81	-0.174057	0.417202
	863.708	-0.101588	0.318728
	865.607	-0.0490731	0.221525
	867.506	-0.0301698	0.173695
	869.404	0.163437	0.404273
	871.303	-0.212817	0.461321
	873.201	-0.409292	0.639759
	875.1	-0.674897	0.821521
	876.999	-0.70109	0.837311
	878.897	-0.631572	0.794715
	880.796	-0.745089	0.863185
	882.694	-0.519398	0.720693
	884.593	-0.0131883	0.11484
	886.492	0.934088	0.966482
	888.39	1.80975	1.34527
	890.289	2.71485	1.64768
	892.188	3.32035	1.82218
	894.086	4.37712	2.09216
	895.985	5.6576	2.37857
	897.883	7.33598	2.7085
	899.782	8.89089	2.98176
	901.681	11.5688	3.40129
	903.579	14.8955	3.85948
	905.478	19.0485	4.36446
	907.377	24.4021	4.93985
	909.275	31.0295	5.57041
	911.174	39.9291	6.31894
	913.072	52.9527	7.27686
	914.971	72.1031	8.49135
	916.87	98.6882	9.93419
	918.768	144.02	12.0008
	920.667	214.384	14.6419
	922.565	319.929	17.8865
	924.464	467.544	21.6228
	926.363	646.207	25.4206
	928.261	809.833	28.4576
	930.16	920.151	30.334
	932.059	953.938	30.8859
	933.957	910.997	30.1827
	935.856	826.169	28.7431
	937.754	713.016	26.7024
	939.653	615.264	24.8045
	941.552	538.563	23.207
	943.45	479.515	21.8978
	945.349	448.607	21.1803
	947.248	435.456	20.8676
	949.146	438.279	20.9351
	951.045	456.63	21.3689
	952.943	488.403	22.0999
	954.842	531.123	23.0461
	956.741	572.52	23.9274
	958.639	598.878	24.472
	960.538	609.546	24.689
	962.436	607.797	24.6535
	964.335	599.953	24.4939
	966.234	580.981	24.1036
	968.132	551.423	23.4824
	970.031	515.846	22.7123
	971.93	476.914	21.8384
	973.828	432.292	20.7916
	975.727	388.138	19.7012
	977.625	341.892	18.4903
	979.524	299.754	17.3134
	981.423	260.298	16.1337
	983.321	225.88	15.0293
	985.22	196.071	14.0025
	987.119	170.491	13.0572
	989.017	149.618	12.2318
	990.916	129.19	11.3662
	992.814	110.007	10.4884
	994.713	93.5101	9.67006
	996.612	79.1064	8.89418
	998.51	65.9447	8.12064
	1000.41	54.7551	7.39967
	1002.31	44.3817	6.66196
	1004.21	35.3415	5.94487
	1006.1	27.7437	5.26722
	1008	20.6734	4.5468
	1009.9	16.3541	4.04402
	1011.8	11.7965	3.43461
	1013.7	8.89263	2.98205
	1015.6	6.35902	2.52171
	1017.5	4.37488	2.09162
	1019.4	3.1325	1.76989
	1021.29	1.5435	1.24237
	1023.19	0.102247	0.319761
	1025.09	-1.28034	1.13152
	1026.99	-2.14462	1.46445
	1028.89	-2.06113	1.43566
	1030.79	-2.98315	1.72718
	1032.69	-2.93801	1.71406
	1034.58	-2.73025	1.65235
	1036.48	-2.22289	1.49093
	1038.38	-1.26261	1.12366
	1040.28	-0.414284	0.643649
	1042.18	0.698104	0.835526
	1044.08	1.31677	1.1475
	1045.98	1.52785	1.23606
	1047.87	1.55269	1.24607
	1049.77	1.97165	1.40416
	1051.67	2.13384	1.46077
	1053.57	2.46873	1.57122
	1055.47	3.1827	1.78401
	1057.37	3.92104	1.98016
	1059.27	5.47753	2.34041
	1061.16	6.82706	2.61287
	1063.06	8.46088	2.90876
	1064.96	9.10249	3.01703
	1066.86	9.57039	3.0936
	1068.76	10.0149	3.16464
	1070.66	10.4709	3.23588
	1072.56	11.4597	3.38521
	1074.46	12.5293	3.53968
	1076.35	14.2698	3.77754
	1078.25	15.7925	3.97398
	1080.15	17.3296	4.16288
	1082.05	18.7772	4.33326
	1083.95	20.4774	4.52519
	1085.85	22.3922	4.73204
	1087.75	24.3974	4.93937
	1089.64	26.3402	5.13227
	1091.54	28.3609	5.32549
	1093.44	30.4113	5.51465
	1095.34	32.2569	5.67952
	1097.24	34.5344	5.8766
	1099.14	36.8948	6.07411
	1101.04	39.4115	6.27786
	1102.93	42.1997	6.49613
	1104.83	44.2244	6.65014
	1106.73	46.3316	6.80674
	1108.63	47.2372	6.87293
	1110.53	48.4678	6.96188
	1112.43	48.4448	6.96023
	1114.33	47.4129	6.8857
	1116.22	45.617	6.75403
	1118.12	42.9223	6.55151
	1120.02	39.3938	6.27645
	1121.92	36.2449	6.02038
	1123.82	33.2153	5.76327
	1125.72	30.0904	5.48547
	1127.62	26.8997	5.1865
	1129.51	23.4672	4.8443
	1131.41	20.6275	4.54175
	1133.31	17.4867	4.18171
	1135.21	14.4558	3.80208
	1137.11	10.8044	3.28701
	1139.01	7.31334	2.70432
	1140.91	4.82376	2.19631
	1142.81	2.6666	1.63297
	1144.7	1.11667	1.05673
	1146.6	-0.555137	0.745075
	1148.5	-1.66259	1.28941
	1150.4	-2.728	1.65167
	1152.3	-1.70606	1.30616
	1154.2	-0.311877	0.558459
	1156.1	0.658419	0.81143
	1157.99	1.76867	1.32991
	1159.89	2.70696	1.64528
	1161.79	4.17435	2.04312
	1163.69	4.69388	2.16654
	1165.59	5.26157	2.29381
	1167.49	5.27051	2.29576
	1169.39	5.62957	2.37267
	1171.28	6.8707	2.6212
	1173.18	8.42168	2.90201
	1175.08	11.1274	3.33578
	1176.98	14.1377	3.76001
	1178.88	17.4012	4.17148
	1180.78	21.4011	4.62613
	1182.68	26.2466	5.12314
	1184.57	32.9327	5.7387
	1186.47	41.0239	6.40499
	1188.37	50.9206	7.13586
	1190.27	64.5812	8.03624
	1192.17	81.3653	9.02027
	1194.07	106.788	10.3338
	1195.97	142.47	11.9361
	1197.87	189.612	13.77
	1199.76	267.884	16.3672
	1201.66	358.783	18.9416
	1203.56	488.015	22.0911
	1205.46	625.11	25.0022
	1207.36	736.747	27.1431
	1209.26	794.593	28.1885
	1211.16	794.486	28.1866
	1213.05	740.462	27.2114
	1214.95	651.637	25.5272
	1216.85	568.196	23.8369
	1218.75	489.578	22.1264
	1220.65	432.099	20.787
	1222.55	382.69	19.5625
	1224.45	346.485	18.6141
	1226.34	318.097	17.8353
	1228.24	293.304	17.1261
	1230.14	268.368	16.3819
	1232.04	244.155	15.6255
	1233.94	213.764	14.6207
	1235.84	183.178	13.5343
	1237.74	152.754	12.3594
	1239.63	125.007	11.1806
	1241.53	101.88	10.0936
	1243.43	82.9828	9.10949
	1245.33	69.828	8.35631
	1247.23	58.9973	7.68097
	1249.13	50.662	7.11773
	1251.03	45.5741	6.75086
	1252.93	41.6259	6.45182
	1254.82	39.1922	6.26037
	1256.72	36.0995	6.00829
	1258.62	33.7094	5.80598
	1260.52	32.8166	5.72858
	1262.42	31.7525	5.63493
	1264.32	31.6865	5.62907
	1266.22	30.5908	5.53089
	1268.11	30.2867	5.50333
	1270.01	29.4157	5.42363
	1271.91	28.8716	5.37323
	1273.81	28.3624	5.32564
	1275.71	27.5993	5.2535
	1277.61	27.4826	5.24238
	1279.51	27.138	5.20942
	1281.4	27.0168	5.19777
	1283.3	27.1088	5.20661
	1285.2	27.6661	5.25986
	1287.1	28.3145	5.32114
	1289	28.629	5.35061
	1290.9	29.156	5.39963
	1292.8	29.7412	5.45355
	1294.69	30.2617	5.50106
	1296.59	30.1084	5.48711
	1298.49	29.706	5.45032
	1300.39	29.4499	5.42677
	1302.29	29.5036	5.43172
	1304.19	29.6405	5.44431
	1306.09	29.4554	5.42728
	1307.99	28.897	5.37559
	1309.88	28.0859	5.29962
	1311.78	28.3838	5.32765
	1313.68	28.6769	5.35508
	1315.58	28.2173	5.312
	1317.48	27.801	5.27267
	1319.38	27.9263	5.28453
	1321.28	28.418	5.33086
	1323.17	28.4428	5.33318
	1325.07	27.8429	5.27663
	1326.97	26.9979	5.19595
	1328.87	26.0112	5.10012
	1330.77	25.2016	5.02012
	1332.67	23.5507	4.85291
	1334.57	21.8537	4.67479
	1336.46	19.8298	4.45307
	1338.36	17.8333	4.22295
	1340.26	15.6315	3.95367
	1342.16	13.585	3.68578
	1344.06	12.0018	3.46436
	1345.96	10.5299	3.24499
	1347.86	8.96836	2.99472
	1349.75	7.19961	2.68321
	1351.65	5.95027	2.43932
	1353.55	4.16461	2.04074
	1355.45	2.77637	1.66624
	1357.35	1.76754	1.32949
	1359.25	1.12816	1.06215
	1361.15	0.0247205	0.157228
	1363.05	-0.890519	0.943673
	1364.94	-1.12671	1.06147
	1366.84	-1.38779	1.17804
	1368.74	-1.9633	1.40118
	1370.64	-2.5164	1.58632
	1372.54	-2.857	1.69027
	1374.44	-2.63568	1.62348
	1376.34	-2.30764	1.51909
	1378.23	-1.54585	1.24332
	1380.13	-0.763455	0.873759
	1382.03	-0.126851	0.356162
	1383.93	0.59703	0.772677
	1385.83	1.56238	1.24995
	1387.73	2.49794	1.58049
	1389.63	3.77738	1.94355
	1391.52	4.91659	2.21734
	1393.42	5.86048	2.42084
	1395.32	6.59292	2.56767
	1397.22	7.71458	2.77751
	1399.12	9.07932	3.01319
	1401.02	10.3342	3.21468
	1402.92	11.4068	3.37739
	1404.81	12.2175	3.49536
	1406.71	13.2058	3.63398
	1408.61	14.0722	3.75129
	1410.51	14.9516	3.86673
	1412.41	15.0717	3.88222
	1414.31	15.4201	3.92684
	1416.21	15.3745	3.92104
	1418.11	15.0599	3.88071
	1420	14.2627	3.7766
	1421.9	13.195	3.63249
	1423.8	11.8759	3.44614
	1425.7	10.3749	3.22101
	1427.6	9.10318	3.01715
	1429.5	7.92174	2.81456
	1431.4	6.78657	2.6051
	1433.29	5.51684	2.34879
	1435.19	4.66661	2.16023
	1437.09	3.89283	1.97303
	1438.99	2.81228	1.67698
	1440.89	2.07744	1.44133
	1442.79	1.85502	1.36199
	1444.69	1.89491	1.37656
	1446.58	1.62478	1.27467
	1448.48	1.11182	1.05443
	1450.38	0.245701	0.495682
	1452.28	-0.0486519	0.220572
	1454.18	-0.228159	0.47766
	1456.08	-0.253003	0.502994
	1457.98	-0.379416	0.615967
	1459.87	-0.0762724	0.276175
	1461.77	-0.013606	0.116645
	1463.67	-0.325239	0.570297
	1465.57	-0.533911	0.730692
	1467.47	-0.511314	0.715062
	1469.37	-0.605615	0.778213
	1471.27	-0.467992	0.684099
	1473.17	-0.25823	0.508163
	1475.06	-0.127346	0.356856
	1476.96	-0.237592	0.487434
	1478.86	-0.452549	0.672718
	1480.76	-0.395693	0.629041
	1482.66	-0.736952	0.858459
	1484.56	-0.75268	0.867571
	1486.46	-0.64851	0.805301
	1488.35	-0.137139	0.370322
	1490.25	0.0105658	0.10279
	1492.15	0.244838	0.494812
	1494.05	0.239247	0.489129
	1495.95	0.106955	0.32704
	1497.85	0.0186088	0.136414
	1499.75	0.0882033	0.29699
	1501.64	0.376469	0.613571
	1503.54	0.680009	0.824627
	1505.44	0.654091	0.808759
	1507.34	0.847506	0.920601
	1509.24	0.813478	0.90193
	1511.14	1.10589	1.05161
	1513.04	0.862031	0.928456
	1514.93	0.66111	0.813087
	1516.83	0.685198	0.827767
	1518.73	1.20738	1.09881
	1520.63	1.40934	1.18715
	1522.53	1.22324	1.106
	1524.43	0.868525	0.931947
	1526.33	0.366297	0.605224
	1528.23	0.39145	0.625659
	1530.12	0.742514	0.861692
	1532.02	0.522461	0.722815
	1533.92	0.446017	0.667845
	1535.82	0.460104	0.67831
	1537.72	0.0832696	0.288565
	1539.62	-0.104884	0.323857
	1541.52	-0.219175	0.468161
	1543.41	-0.157329	0.396648
	1545.31	0.229125	0.47867
	1547.21	0.470108	0.685644
	1549.11	0.333788	0.577744
	1551.01	0.232374	0.482052
	1552.91	0.246057	0.496041
	1554.81	0.377561	0.61446
	1556.7	0.483767	0.695533
	1558.6	0.654088	0.808757
	1560.5	0.842961	0.918129
	1562.4	0.502726	0.709031
	1564.3	0.296401	0.544427
	1566.2	0.57012	0.755063
	1568.1	0.619304	0.786958
	1569.99	0.690032	0.830682
	1571.89	0.59355	0.770422
	1573.79	0.674068	0.821016
	1575.69	0.731875	0.855497
	1577.59	1.08796	1.04305
	1579.49	1.74551	1.32118
	1581.39	2.14872	1.46585
	1583.29	2.32321	1.52421
	1585.18	2.21384	1.4879
	1587.08	2.71337	1.64723
	1588.98	3.32503	1.82347
	1590.88	4.36886	2.09018
	1592.78	5.64902	2.37677
	1594.68	7.3157	2.70475
	1596.58	8.47902	2.91188
	1598.47	9.86976	3.14162
	1600.37	11.569	3.40133
	1602.27	13.4961	3.6737
	1604.17	15.7129	3.96395
	1606.07	18.2128	4.26765
	1607.97	20.676	4.54709
	1609.87	23.5197	4.84972
	1611.76	26.1709	5.11575
	1613.66	29.1454	5.39865
	1615.56	31.7795	5.63733
	1617.46	34.5917	5.88147
	1619.36	37.0766	6.08906
	1621.26	38.2487	6.18455
	1623.16	39.32	6.27056
	1625.05	39.7348	6.30355
	1626.95	39.4536	6.28121
	1628.85	38.8452	6.23259
	1630.75	37.5448	6.12738
	1632.65	36.1378	6.01147
	1634.55	33.9528	5.8269
	1636.45	32.3608	5.68866
	1638.34	30.3761	5.51145
	1640.24	28.6529	5.35284
	1642.14	26.7581	5.17282
	1644.04	25.3864	5.03849
	1645.94	24.4532	4.94501
	1647.84	23.76	4.87442
	1649.74	23.9735	4.89627
	1651.64	24.728	4.97273
	1653.53	26.346	5.13284
	1655.43	29.0197	5.38699
	1657.33	31.4502	5.60804
	1659.23	34.3149	5.85789
	1661.13	36.8297	6.06875
	1663.03	38.5878	6.21191
	1664.93	40.4326	6.35867
	1666.82	41.5429	6.44538
	1668.72	43.091	6.56438
	1670.62	42.8225	6.54389
	1672.52	42.2143	6.49725
	1674.42	40.3729	6.35397
	1676.32	37.2035	6.09946
	1678.22	32.6442	5.71351
	1680.11	27.5331	5.2472
	1682.01	23.076	4.80375
	1683.91	19.0906	4.36928
	1685.81	15.0828	3.88366
	1687.71	12.3213	3.51018
	1689.61	10.2995	3.20928
	1691.51	8.7939	2.96545
	1693.4	7.29518	2.70096
	1695.3	6.10236	2.4703
	1697.2	5.55272	2.35642
	1699.1	5.14362	2.26795
	1701	4.52249	2.12661
	1702.9	4.04627	2.01153
	1704.8	3.33382	1.82588
	1706.7	2.93928	1.71443
	1708.59	2.45975	1.56836
	1710.49	2.2872	1.51235
	1712.39	1.92501	1.38745
	1714.29	1.56354	1.25042
	1716.19	0.925702	0.962134
	1718.09	0.537279	0.732993
	1719.99	0.388634	0.623405
	1721.88	0.550939	0.742253
	1723.78	0.346524	0.588662
	1725.68	-0.573992	0.757623
	1727.58	-1.10692	1.0521
	1729.48	-1.24058	1.11381
	1731.38	-1.58559	1.2592
	1733.28	-1.43053	1.19605
	1735.17	-1.36835	1.16977
	1737.07	-1.04329	1.02142
	1738.97	-1.14036	1.06788
	1740.87	-1.144	1.06958
	1742.77	-0.952067	0.975739
	1744.67	-0.955184	0.977335
	1746.57	-0.450595	0.671264
	1748.46	-0.0370493	0.192482
	1750.36	0.441683	0.664592
	1752.26	0.904543	0.951074
	1754.16	0.91921	0.958755
	1756.06	1.05741	1.0283
	1757.96	1.23908	1.11314
	1759.86	1.98846	1.41013
	1761.76	2.70878	1.64584
	1763.65	3.4973	1.87011
	1765.55	4.50015	2.12136
	1767.45	5.6796	2.38319
	1769.35	7.3817	2.71693
	1771.25	9.18686	3.03098
	1773.15	11.4433	3.3828
	1775.05	14.6963	3.83358
	1776.94	18.991	4.35786
	1778.84	23.9021	4.88898
	1780.74	29.8046	5.45936
	1782.64	36.9177	6.076
	1784.54	45.3723	6.73589
	1786.44	53.9758	7.34683
	1788.34	61.5399	7.84474
	1790.23	67.6261	8.22351
	1792.13	72.4663	8.51271
	1794.03	75.7562	8.7038
	1795.93	78.8661	8.88066
	1797.83	81.7903	9.0438
	1799.73	85.0552	9.22254
	1801.63	88.733	9.41982
	1803.52	93.4195	9.66538
	1805.42	98.6787	9.93372
	1807.32	104.134	10.2046
	1809.22	109.637	10.4708
	1811.12	115.586	10.7511
	1813.02	121.407	11.0185
	1814.92	126.835	11.2621
	1816.82	129.788	11.3924
	1818.71	129.42	11.3763
	1820.61	125.28	11.1928
	1822.51	118.102	10.8675
	1824.41	109.19	10.4494
	1826.31	99.4033	9.97012
	1828.21	89.9649	9.48498
	1830.11	80.903	8.99461
	1832	72.9828	8.543
	1833.9	65.8252	8.11327
	1835.8	60.0314	7.748
	1837.7	55.3523	7.43992
	1839.6	52.0655	7.21564
	1841.5	49.0311	7.00222
	1843.4	46.6855	6.83268
	1845.29	44.0239	6.63505
	1847.19	40.7179	6.38106
	1849.09	37.5177	6.12517
	1850.99	34.5679	5.87944
	1852.89	31.5708	5.61879
	1854.79	28.5763	5.34568
	1856.69	25.5339	5.05311
	1858.58	22.9286	4.78838
	1860.48	20.644	4.54356
	1862.38	18.2149	4.2679
	1864.28	16.3164	4.03935
	1866.18	14.5451	3.81381
	1868.08	13.1697	3.62901
	1869.98	11.975	3.46049
	1871.88	11.2416	3.35285
	1873.77	10.7486	3.2785
	1875.67	10.5668	3.25066
	1877.57	9.94853	3.15413
	1879.47	9.52902	3.08691
	1881.37	9.06383	3.01062
	1883.27	8.70953	2.95119
	1885.17	8.43707	2.90466
	1887.06	8.05289	2.83776
	1888.96	7.8619	2.80391
	1890.86	7.62101	2.76062
	1892.76	7.69022	2.77312
	1894.66	8.00452	2.82923
	1896.56	8.62122	2.93619
	1898.46	8.84901	2.97473
	1900.35	8.87941	2.97983
	1902.25	9.01914	3.00319
	1904.15	9.64023	3.10487
	1906.05	10.4785	3.23705
	1907.95	11.209	3.34798
	1909.85	11.1602	3.34069
	1911.75	10.9512	3.30926
	1913.64	11.0647	3.32636
	1915.54	11.8238	3.43858
	1917.44	12.2183	3.49547
	1919.34	12.1202	3.48141
	1921.24	12.0835	3.47613
	1923.14	11.8068	3.43611
	1925.04	11.3969	3.37593
	1926.94	10.3882	3.22308
	1928.83	9.54232	3.08906
	1930.73	8.68867	2.94765
	1932.63	8.15348	2.85543
	1934.53	7.44508	2.72857
	1936.43	6.39165	2.52817
	1938.33	5.26341	2.29421
	1940.23	4.16243	2.0402
	1942.12	3.0497	1.74634
	1944.02	2.13861	1.4624
	1945.92	1.74726	1.32184
	1947.82	1.37927	1.17442
	1949.72	0.703358	0.838665
	1951.62	0.241179	0.4911
	1953.52	0.0699344	0.264451
	1955.41	0.0959433	0.309747
	1957.31	0.0633452	0.251685
	1959.21	-0.173272	0.416259
	1961.11	-0.276738	0.526059
	1963.01	0.0923202	0.303842
	1964.91	0.706361	0.840453
	1966.81	1.63413	1.27833
	1968.7	2.70786	1.64556
	1970.6	3.86885	1.96694
	1972.5	5.62503	2.37171
	1974.4	7.61851	2.76017
	1976.3	9.84906	3.13832
	1978.2	11.9157	3.45191
	1980.1	14.3047	3.78215
	1982	17.0382	4.12774
	1983.89	19.4932	4.41511
	1985.79	21.748	4.66348
	1987.69	23.7979	4.87831
	1989.59	25.7568	5.07512
	1991.49	27.4158	5.23601
	1993.39	28.2812	5.31801
	1995.29	28.2554	5.31558
	1997.18	27.9477	5.28656
	1999.08	27.7302	5.26595
	2000.98	27.816	5.27408
	2002.88	28.2404	5.31417
	2004.78	29.4414	5.426
	2006.68	31.2739	5.59231
	2008.58	33.2276	5.76434
	2010.47	35.2586	5.9379
	2012.37	36.9808	6.08118
	2014.27	38.3864	6.19568
	2016.17	39.8116	6.30964
	2018.07	40.6157	6.37305
	2019.97	40.9473	6.39901
	2021.87	40.6714	6.37741
	2023.76	39.9201	6.31823
	2025.66	38.9318	6.23953
	2027.56	37.3445	6.11101
	2029.46	35.7616	5.9801
	2031.36	34.2823	5.8551
	2033.26	33.9707	5.82844
	2035.16	33.4849	5.78662
	2037.06	32.4886	5.69988
	2038.95	30.9664	5.56474
	2040.85	30.2304	5.49822
	2042.75	29.4325	5.42518
	2044.65	28.744	5.36134
	2046.55	27.9542	5.28717
	2048.45	26.9956	5.19572
	2050.35	25.5826	5.05792
	2052.24	24.5434	4.95413
	2054.14	23.8021	4.87874
	2056.04	23.2423	4.82103
	2057.94	22.3214	4.72456
	2059.84	21.2666	4.61157
	2061.74	20.2502	4.50002
	2063.64	19.3014	4.39333
	2065.53	18.372	4.28626
	2067.43	17.4668	4.17933
	2069.33	16.8914	4.10992
	2071.23	16.3414	4.04245
	2073.13	15.6538	3.95649
	2075.03	15.0133	3.8747
	2076.93	14.3055	3.78226
	2078.82	13.4908	3.67299
	2080.72	13.3527	3.65414
	2082.62	13.3325	3.65137
	2084.52	13.4176	3.663
	2086.42	13.078	3.61635
	2088.32	12.5963	3.54912
	2090.22	12.6356	3.55465
	2092.12	12.6652	3.55882
	2094.01	12.3593	3.51559
	2095.91	11.853	3.44282
	2097.81	11.6443	3.41237
	2099.71	11.6847	3.41829
	2101.61	11.5913	3.40459
	2103.51	11.7922	3.43397
	2105.41	11.5858	3.40379
	2107.3	11.343	3.36794
	2109.2	11.2605	3.35567
	2111.1	11.1229	3.33511
	2113	10.9819	3.3139
	2114.9	10.8532	3.29441
	2116.8	10.551	3.24824
	2118.7	9.95358	3.15493
	2120.59	9.17143	3.02844
	2122.49	8.43017	2.90348
	2124.39	7.94301	2.81833
	2126.29	7.49725	2.73811
	2128.19	7.34691	2.71052
	2130.09	6.80874	2.60936
	2131.99	6.20977	2.49194
	2133.88	5.61844	2.37033
	2135.78	5.01601	2.23965
	2137.68	4.09675	2.02404
	2139.58	3.57655	1.89118
	2141.48	2.98686	1.72825
	2143.38	2.58318	1.60723
	2145.28	1.88747	1.37385
	2147.17	1.58959	1.26079
	2149.07	1.31283	1.14579
	2150.97	1.06719	1.03305
	2152.87	0.786252	0.886708
	2154.77	0.675917	0.822142
	2156.67	0.568875	0.754238
	2158.57	0.295331	0.543444
	2160.47	-0.0100856	0.100427
	2162.36	-0.114885	0.338947
	2164.26	0.0360438	0.189852
	2166.16	-0.0679965	0.260761
	2168.06	-0.119554	0.345766
	2169.96	-0.28293	0.531912
	2171.86	-0.207836	0.455891
	2173.76	-0.461897	0.67963
	2175.65	-0.397711	0.630643
	2177.55	-0.430328	0.655994
	2179.45	-0.221721	0.470872
	2181.35	-0.436067	0.660354
	2183.25	-0.523444	0.723494
	2185.15	-0.535489	0.731771
	2187.05	-0.515957	0.718301
	2188.94	-0.421669	0.649361
	2190.84	-0.141644	0.376356
	2192.74	0.0842545	0.290266
	2194.64	0.213382	0.461933
	2196.54	0.347195	0.589232
	2198.44	0.574775	0.758139
	2200.34	0.921448	0.959921
	2202.23	1.33542	1.15561
	2204.13	1.38639	1.17745
	2206.03	1.49651	1.22332
	2207.93	1.6315	1.2773
	2209.83	1.81995	1.34906
	2211.73	1.7138	1.30912
	2213.63	1.88117	1.37156
	2215.53	1.75623	1.32523
	2217.42	1.53323	1.23824
	2219.32	1.38721	1.1778
	2221.22	1.43647	1.19853
	2223.12	1.44762	1.20317
	2225.02	1.40063	1.18348
	2226.92	1.70051	1.30404
	2228.82	1.9583	1.39939
	2230.71	2.3777	1.54198
	2232.61	2.80214	1.67396
	2234.51	3.11555	1.76509
	2236.41	3.10536	1.7622
	2238.31	2.96023	1.72053
	2240.21	2.83935	1.68504
	2242.11	2.90708	1.70502
	2244	3.02592	1.73952
	2245.9	3.13211	1.76978
	2247.8	3.22223	1.79506
	2249.7	3.06536	1.75082
	2251.6	2.77604	1.66614
	2253.5	2.57304	1.60407
	2255.4	2.53606	1.5925
	2257.29	2.63992	1.62478
	2259.19	2.47729	1.57394
	2261.09	2.31913	1.52287
	2262.99	2.07193	1.43942
	2264.89	1.73129	1.31579
	2266.79	1.35946	1.16596
	2268.69	1.1014	1.04948
	2270.59	1.08956	1.04382
	2272.48	1.18755	1.08975
	2274.38	1.4094	1.18718
	2276.28	1.5487	1.24447
	2278.18	1.39245	1.18002
	2280.08	1.28048	1.13158
	2281.98	1.31974	1.1488
	2283.88	1.40083	1.18357
	2285.77	1.48665	1.21928
	2287.67	1.29293	1.13707
	2289.57	1.07216	1.03545
	2291.47	0.714205	0.845107
	2293.37	0.526111	0.725335
	2295.27	0.323018	0.568346
	2297.17	0.192004	0.438183
	2299.06	-0.151751	0.389553
	2300.96	-0.141489	0.37615
	2302.86	-0.342304	0.585067
	2304.76	-0.328947	0.573539
	2306.66	-0.263594	0.513414
	2308.56	-0.0633301	0.251655
	2310.46	-0.0145783	0.12074
	2312.35	-0.00223545	0.0472805
	2314.25	-0.0676697	0.260134
	2316.15	-0.00444994	0.0667078
	2318.05	-0.0689345	0.262554
	2319.95	0.0276419	0.166258
	2321.85	0.0470879	0.216997
	2323.75	0.0366839	0.19153
	2325.65	0.0446876	0.211394
	2327.54	0.379923	0.616379
	2329.44	0.311621	0.55823
	2331.34	0.258416	0.508347
	2333.24	0.0325046	0.18029
	2335.14	0.293333	0.541602
	2337.04	0.384607	0.620167
	2338.94	0.261077	0.510957
	2340.83	0.0639966	0.252975
	2342.73	-0.0607044	0.246383
	2344.63	0.0274624	0.165718
	2346.53	0.0280264	0.167411
	2348.43	0.204252	0.451942
	2350.33	0.179852	0.42409
	2352.23	0.180858	0.425273
	2354.12	0.166553	0.408109
	2356.02	0.245498	0.495478
	2357.92	0.529359	0.727571
	2359.82	0.611408	0.781926
	2361.72	0.49141	0.701006
	2363.62	0.393622	0.627393
	2365.52	0.157687	0.397099
	2367.41	0.120769	0.347518
	2369.31	-0.0943752	0.307205
	2371.21	-0.096994	0.311439
	2373.11	-0.133407	0.36525
	2375.01	0.118822	0.344706
	2376.91	0.349002	0.590764
	2378.81	0.5418	0.736071
	2380.71	0.459561	0.67791
	2382.6	0.491913	0.701365
	2384.5	0.679075	0.82406
	2386.4	0.799077	0.893911
	2388.3	0.869539	0.932491
	2390.2	0.470151	0.685676
	2392.1	0.420709	0.648621
	2394	0.234829	0.484591
	2395.89	0.308657	0.555569
	2397.79	0.0453305	0.21291
	2399.69	-0.1771	0.420833
	2401.59	-0.237429	0.487267
	2403.49	-0.159134	0.398916
	2405.39	0.0582187	0.241286
	2407.29	-0.0108329	0.104081
	2409.18	0.0505972	0.224938
	2411.08	0.0793871	0.281757
	2412.98	0.214874	0.463545
	2414.88	0.0370296	0.192431
	2416.78	-0.0336225	0.183364
	2418.68	-0.0595622	0.244054
	2420.58	-0.00866324	0.0930765
	2422.47	-0.16404	0.405019
	2424.37	0.115572	0.339959
