Generated file C:/Users/didvk/OneDrive - University of Florida/UF_Isaiah_06-16-2020-Tue/Analysis/Re0.1Mo0.9B2/Re0.1Mo0.9B2_HPXRD_run2_300_20220710 - Copy/mask&dat&fxye_4position/19_ReMoB2_50p0GPa_200psi_release_P1_C4_D1w_132.fxye using DIOPTAS
# == pyFAI calibration ==
# Distance Sample to Detector: 0.2103851508954585 m
# PONI: 8.889e-02, 8.665e-02 m
# Rotations: 0.008634 -0.000915 0.000000 rad
# 
# == Fit2d calibration ==
# Distance Sample-beamCenter: 210.393 mm
# Center: x=493.236, y=515.685 pix
# Tilt: 0.497 deg  TiltPlanRot: -173.953 deg
# 
# Detector Detector	 Spline= None	 PixelSize= 1.720e-04, 1.720e-04 m
#    Detector has a mask: False 
#    Detector has a dark current: False 
#    detector has a flat field: False 
# 
# Wavelength: 4.133e-11 m
# Mask applied: None
# Dark current applied: None
# Flat field applied: None
# Polarization factor: None
# Normalization factor: None
BANK	1	1129	1129 CONS	282.731	1.89862 0.4133 0.0 FXYE
	282.731	0.45527	0.674737
	284.629	0.642372	0.801481
	286.528	1.00021	1.0001
	288.427	0.554736	0.744806
	290.325	0.563688	0.750792
	292.224	0.498342	0.705934
	294.122	-0.170894	0.413393
	296.021	-0.341994	0.584803
	297.92	0.698865	0.835981
	299.818	1.96164	1.40059
	301.717	2.17677	1.47539
	303.616	1.41206	1.1883
	305.514	0.49862	0.70613
	307.413	0.0668981	0.258647
	309.311	0.349568	0.591243
	311.21	1.11476	1.05582
	313.109	1.37934	1.17445
	315.007	1.2895	1.13556
	316.906	0.988968	0.994469
	318.805	0.83169	0.911971
	320.703	0.920029	0.959181
	322.602	1.4094	1.18718
	324.5	1.74594	1.32134
	326.399	1.67351	1.29364
	328.298	1.62645	1.27532
	330.196	1.51296	1.23003
	332.095	2.63355	1.62282
	333.993	3.33625	1.82654
	335.892	4.29146	2.07158
	337.791	5.45985	2.33663
	339.689	6.58309	2.56575
	341.588	9.06579	3.01095
	343.487	12.3183	3.50974
	345.385	17.688	4.2057
	347.284	24.6645	4.96634
	349.182	31.8198	5.6409
	351.081	36.3762	6.03127
	352.98	35.7326	5.97768
	354.878	29.9145	5.46942
	356.777	21.6084	4.64849
	358.676	14.4627	3.80298
	360.574	9.52261	3.08587
	362.473	7.3441	2.71
	364.371	5.46856	2.3385
	366.27	3.54721	1.8834
	368.169	2.26591	1.5053
	370.067	1.72591	1.31374
	371.966	2.35214	1.53367
	373.864	2.43953	1.5619
	375.763	2.09637	1.44788
	377.662	1.6139	1.27039
	379.56	1.73207	1.31608
	381.459	1.47785	1.21567
	383.358	1.83079	1.35307
	385.256	1.68326	1.29741
	387.155	2.05088	1.43209
	389.053	1.51502	1.23086
	390.952	1.49945	1.22452
	392.851	1.60026	1.26501
	394.749	1.40501	1.18533
	396.648	1.62737	1.27568
	398.547	1.60912	1.26851
	400.445	1.32765	1.15224
	402.344	1.14549	1.07028
	404.242	0.00127613	0.035723
	406.141	0.117993	0.343501
	408.04	0.413754	0.643237
	409.938	0.883675	0.94004
	411.837	0.475955	0.689895
	413.735	0.211361	0.45974
	415.634	0.474829	0.689078
	417.533	0.317552	0.563518
	419.431	0.0895119	0.299185
	421.33	-0.148942	0.38593
	423.229	0.143915	0.379362
	425.127	0.712085	0.843851
	427.026	1.0085	1.00424
	428.924	0.870019	0.932748
	430.823	0.855883	0.92514
	432.722	1.15953	1.07682
	434.62	0.464612	0.681625
	436.519	0.543409	0.737163
	438.418	0.439535	0.662974
	440.316	0.722535	0.850021
	442.215	0.389368	0.623993
	444.113	-0.0197453	0.140518
	446.012	-0.162983	0.403712
	447.911	0.107902	0.328485
	449.809	0.0225955	0.150318
	451.708	0.0913338	0.302215
	453.606	0.0659615	0.25683
	455.505	0.452386	0.672596
	457.404	0.407598	0.638434
	459.302	0.676918	0.82275
	461.201	0.981931	0.990924
	463.1	0.74241	0.861632
	464.998	0.826481	0.90911
	466.897	0.691823	0.831759
	468.795	1.28792	1.13487
	470.694	1.6672	1.2912
	472.593	1.43096	1.19623
	474.491	1.09753	1.04763
	476.39	0.854735	0.924519
	478.289	0.689774	0.830526
	480.187	1.02306	1.01146
	482.086	0.472954	0.687717
	483.984	0.707885	0.841359
	485.883	0.811311	0.900728
	487.782	1.41031	1.18757
	489.68	1.50228	1.22567
	491.579	1.08915	1.04362
	493.478	0.771057	0.878098
	495.376	0.643281	0.802048
	497.275	0.646059	0.803778
	499.173	0.386228	0.621472
	501.072	-0.175528	0.418961
	502.971	-0.113446	0.336817
	504.869	-0.384461	0.620049
	506.768	-0.138508	0.372167
	508.666	0.119637	0.345886
	510.565	0.772398	0.878862
	512.464	1.22061	1.10481
	514.362	0.762058	0.872959
	516.261	0.484083	0.695761
	518.16	0.267904	0.517594
	520.058	0.290249	0.538748
	521.957	0.276809	0.526126
	523.855	0.541986	0.736197
	525.754	0.673994	0.820971
	527.653	0.846344	0.919969
	529.551	0.932426	0.965622
	531.45	0.525094	0.724634
	533.349	0.236061	0.485861
	535.247	0.279779	0.528942
	537.146	0.546981	0.739582
	539.044	1.02107	1.01048
	540.943	1.34089	1.15797
	542.842	0.841035	0.91708
	544.74	0.530594	0.728419
	546.639	-0.00406417	0.0637509
	548.537	0.316719	0.562778
	550.436	0.0433813	0.208282
	552.335	0.109807	0.331371
	554.233	-0.00127381	0.0356905
	556.132	-0.163866	0.404804
	558.031	0.210021	0.458281
	559.929	0.905248	0.951445
	561.828	1.37781	1.1738
	563.726	0.789519	0.888549
	565.625	0.203497	0.451107
	567.524	0.336347	0.579954
	569.422	0.589604	0.767857
	571.321	0.776569	0.881231
	573.22	1.04785	1.02365
	575.118	1.39491	1.18106
	577.017	1.22625	1.10736
	578.915	1.19402	1.09271
	580.814	0.861358	0.928094
	582.713	0.637836	0.798646
	584.611	0.281983	0.531021
	586.51	0.515218	0.717787
	588.408	0.63021	0.793858
	590.307	0.930596	0.964674
	592.206	1.42265	1.19275
	594.104	2.33369	1.52764
	596.003	3.0747	1.75348
	597.902	4.78405	2.18725
	599.8	5.47499	2.33987
	601.699	4.87664	2.20831
	603.597	3.48863	1.86779
	605.496	2.0764	1.44097
	607.395	1.75545	1.32494
	609.293	1.51141	1.22939
	611.192	0.87218	0.933906
	613.091	0.690615	0.831032
	614.989	0.813011	0.901671
	616.888	0.965387	0.982541
	618.786	0.175483	0.418907
	620.685	-0.0488113	0.220933
	622.584	-0.0828406	0.28782
	624.482	-0.0926178	0.304332
	626.381	-0.150788	0.388314
	628.279	0.16192	0.402393
	630.178	0.773084	0.879252
	632.077	1.1207	1.05863
	633.975	1.6871	1.29889
	635.874	1.96934	1.40333
	637.773	2.80205	1.67393
	639.671	3.6801	1.91836
	641.57	4.72293	2.17323
	643.468	5.25455	2.29228
	645.367	5.47783	2.34048
	647.266	5.61994	2.37064
	649.164	5.37517	2.31844
	651.063	4.05007	2.01248
	652.962	3.05485	1.74781
	654.86	2.16608	1.47176
	656.759	2.53963	1.59362
	658.657	3.19537	1.78756
	660.556	3.99057	1.99764
	662.455	5.84742	2.41814
	664.353	8.52493	2.91975
	666.252	12.8845	3.58949
	668.15	18.8407	4.34058
	670.049	26.5848	5.15604
	671.948	35.0443	5.91982
	673.846	42.5227	6.52095
	675.745	48.5903	6.97068
	677.644	51.0515	7.14503
	679.542	50.7244	7.1221
	681.441	48.3796	6.95555
	683.339	45.3287	6.73266
	685.238	42.6386	6.52983
	687.137	41.5042	6.44237
	689.035	44.0237	6.63504
	690.934	51.5908	7.18267
	692.833	65.3666	8.08496
	694.731	86.8202	9.31774
	696.63	117.208	10.8263
	698.528	152.654	12.3553
	700.427	192.13	13.8611
	702.326	221.35	14.8778
	704.224	233.028	15.2653
	706.123	226.242	15.0413
	708.021	202.787	14.2403
	709.92	169.452	13.0174
	711.819	135.21	11.628
	713.717	102.086	10.1038
	715.616	76.1927	8.72884
	717.515	57.9437	7.61207
	719.413	44.0076	6.63383
	721.312	34.6229	5.88412
	723.21	27.5293	5.24683
	725.109	22.1035	4.70143
	727.008	17.4304	4.17497
	728.906	13.4556	3.66819
	730.805	11.2015	3.34687
	732.704	10.0634	3.17229
	734.602	8.85364	2.97551
	736.501	6.79898	2.60748
	738.399	5.25246	2.29182
	740.298	4.46653	2.11342
	742.197	3.76497	1.94035
	744.095	3.2768	1.81019
	745.994	2.70645	1.64513
	747.892	2.49439	1.57936
	749.791	2.14745	1.46542
	751.69	1.62007	1.27282
	753.588	1.22972	1.10893
	755.487	0.701136	0.837338
	757.386	0.325475	0.570504
	759.284	0.403332	0.635084
	761.183	0.382461	0.618435
	763.081	0.0382809	0.195655
	764.98	-0.0107063	0.103471
	766.879	-0.272003	0.521539
	768.777	0.0642952	0.253565
	770.676	-0.0345675	0.185923
	772.575	0.155898	0.394839
	774.473	0.196691	0.443498
	776.372	0.405874	0.637083
	778.27	0.406715	0.637742
	780.169	0.448947	0.670035
	782.068	0.318342	0.564218
	783.966	0.28121	0.530292
	785.865	0.496013	0.704282
	787.764	0.447596	0.669026
	789.662	0.295613	0.543703
	791.561	0.0252836	0.159008
	793.459	-0.22171	0.470861
	795.358	0.205707	0.453549
	797.257	0.499391	0.706676
	799.155	0.552238	0.743127
	801.054	0.157508	0.396873
	802.952	0.0676482	0.260093
	804.851	0.17616	0.419714
	806.75	0.303034	0.550485
	808.648	0.126801	0.356091
	810.547	0.0587885	0.242463
	812.446	-0.0964474	0.31056
	814.344	-0.135196	0.367691
	816.243	-0.0788434	0.280791
	818.141	0.109371	0.330712
	820.04	-0.116897	0.341901
	821.939	0.00261118	0.0510998
	823.837	0.0526543	0.229465
	825.736	0.419448	0.647648
	827.635	0.613256	0.783107
	829.533	0.61137	0.781901
	831.432	0.72413	0.850958
	833.33	0.981547	0.990731
	835.229	0.999413	0.999706
	837.128	0.801468	0.895247
	839.026	0.353013	0.594149
	840.925	0.187043	0.432485
	842.823	0.423074	0.650441
	844.722	0.775723	0.880751
	846.621	1.02263	1.01125
	848.519	0.839732	0.916369
	850.418	0.355422	0.596173
	852.317	0.326844	0.571702
	854.215	0.0295293	0.171841
	856.114	0.357215	0.597675
	858.012	0.610085	0.78108
	859.911	0.820414	0.905767
	861.81	0.142188	0.377078
	863.708	-0.510446	0.714455
	865.607	-0.297804	0.545714
	867.506	0.21297	0.461487
	869.404	0.459205	0.677647
	871.303	-0.0758517	0.275412
	873.201	-0.531157	0.728805
	875.1	-0.665736	0.815927
	876.999	-0.44043	0.663649
	878.897	-0.787379	0.887344
	880.796	-0.260769	0.510655
	882.694	0.130581	0.36136
	884.593	0.647978	0.804971
	886.492	0.874666	0.935236
	888.39	0.923492	0.960985
	890.289	1.27484	1.12909
	892.188	2.07232	1.43955
	894.086	3.19832	1.78838
	895.985	4.10923	2.02712
	897.883	4.62156	2.14978
	899.782	6.47322	2.54425
	901.681	9.56165	3.09219
	903.579	13.7036	3.70184
	905.478	19.0532	4.365
	907.377	26.5538	5.15304
	909.275	37.3803	6.11394
	911.174	53.7043	7.32832
	913.072	82.3744	9.07604
	914.971	133.103	11.537
	916.87	211.282	14.5356
	918.768	340.8	18.4608
	920.667	510.928	22.6037
	922.565	691.435	26.2952
	924.464	852.765	29.2021
	926.363	987.867	31.4303
	928.261	1053.04	32.4505
	930.16	1074.22	32.7752
	932.059	1012.58	31.8211
	933.957	915.053	30.2498
	935.856	787.468	28.0619
	937.754	656.765	25.6274
	939.653	566.353	23.7982
	941.552	508.322	22.546
	943.45	484.88	22.02
	945.349	490.336	22.1435
	947.248	512.555	22.6397
	949.146	536.921	23.1716
	951.045	565.937	23.7894
	952.943	606.112	24.6193
	954.842	654.753	25.5881
	956.741	697.339	26.4072
	958.639	705.83	26.5675
	960.538	683.225	26.1386
	962.436	634.303	25.1854
	964.335	578.421	24.0504
	966.234	516.214	22.7204
	968.132	457.754	21.3952
	970.031	409.847	20.2447
	971.93	365.193	19.11
	973.828	324.766	18.0213
	975.727	290.318	17.0387
	977.625	261.129	16.1595
	979.524	237.261	15.4033
	981.423	216.616	14.7179
	983.321	197.582	14.0564
	985.22	179.138	13.3842
	987.119	158.977	12.6086
	989.017	139.404	11.8069
	990.916	120.108	10.9594
	992.814	99.8421	9.9921
	994.713	81.2329	9.01293
	996.612	65.3562	8.08432
	998.51	49.8432	7.05997
	1000.41	39.2732	6.26683
	1002.31	28.7589	5.36273
	1004.21	21.4296	4.62921
	1006.1	15.2458	3.90458
	1008	10.8446	3.29311
	1009.9	7.76123	2.7859
	1011.8	5.43967	2.33231
	1013.7	3.47364	1.86377
	1015.6	1.78773	1.33706
	1017.5	0.111857	0.33445
	1019.4	-1.13117	1.06356
	1021.29	-1.94914	1.39612
	1023.19	-2.25083	1.50028
	1025.09	-2.57599	1.60499
	1026.99	-2.39525	1.54766
	1028.89	-1.89589	1.37691
	1030.79	-1.0899	1.04398
	1032.69	-0.681603	0.825593
	1034.58	-0.437477	0.66142
	1036.48	-0.495215	0.703715
	1038.38	-0.671694	0.819569
	1040.28	-0.954442	0.976955
	1042.18	-1.00218	1.00109
	1044.08	-0.679592	0.824374
	1045.98	0.260781	0.510667
	1047.87	1.37522	1.1727
	1049.77	3.501	1.8711
	1051.67	5.57872	2.36193
	1053.57	8.3585	2.89111
	1055.47	10.7928	3.28525
	1057.37	13.4777	3.6712
	1059.27	15.4043	3.92483
	1061.16	17.0886	4.13383
	1063.06	18.421	4.29197
	1064.96	19.4537	4.41064
	1066.86	20.5381	4.5319
	1068.76	20.9398	4.57601
	1070.66	21.4075	4.62682
	1072.56	22.4388	4.73696
	1074.46	24.0655	4.90566
	1076.35	26.0123	5.10023
	1078.25	27.9057	5.28258
	1080.15	30.1452	5.49047
	1082.05	32.1695	5.67182
	1083.95	34.0353	5.83398
	1085.85	35.6376	5.96972
	1087.75	37.8456	6.15188
	1089.64	40.4019	6.35625
	1091.54	43.5809	6.60158
	1093.44	46.3611	6.8089
	1095.34	49.3402	7.02426
	1097.24	51.946	7.20736
	1099.14	54.5606	7.38651
	1101.04	57.0001	7.54984
	1102.93	59.2575	7.69789
	1104.83	61.7482	7.858
	1106.73	63.8151	7.98844
	1108.63	65.2343	8.07678
	1110.53	65.3347	8.08299
	1112.43	64.1748	8.01092
	1114.33	61.3826	7.83471
	1116.22	58.0659	7.6201
	1118.12	54.0054	7.34883
	1120.02	49.988	7.07022
	1121.92	45.2153	6.72423
	1123.82	40.4739	6.36191
	1125.72	36.5782	6.04799
	1127.62	32.5252	5.70309
	1129.51	28.3528	5.32473
	1131.41	24.3373	4.93329
	1133.31	20.1732	4.49146
	1135.21	16.8695	4.10725
	1137.11	13.8042	3.7154
	1139.01	10.9097	3.30299
	1140.91	8.02309	2.83251
	1142.81	5.12144	2.26306
	1144.7	2.99879	1.7317
	1146.6	1.05884	1.029
	1148.5	-0.842372	0.917808
	1150.4	-2.49027	1.57806
	1152.3	-2.70618	1.64505
	1154.2	-1.86979	1.3674
	1156.1	-0.141177	0.375735
	1157.99	1.79058	1.33812
	1159.89	4.08723	2.02169
	1161.79	6.09781	2.46937
	1163.69	8.37879	2.89461
	1165.59	9.91342	3.14856
	1167.49	11.5186	3.39391
	1169.39	12.1819	3.49025
	1171.28	14.0196	3.74428
	1173.18	16.4816	4.05975
	1175.08	19.1781	4.37928
	1176.98	23.274	4.82431
	1178.88	27.2098	5.2163
	1180.78	33.9156	5.82371
	1182.68	41.1599	6.41559
	1184.57	51.0112	7.14221
	1186.47	63.7122	7.98199
	1188.37	80.0615	8.94771
	1190.27	103.637	10.1802
	1192.17	132.707	11.5199
	1194.07	175.818	13.2597
	1195.97	229.252	15.1411
	1197.87	299.308	17.3005
	1199.76	386.175	19.6513
	1201.66	479.688	21.9018
	1203.56	581.16	24.1073
	1205.46	668.714	25.8595
	1207.36	736.05	27.1302
	1209.26	770.69	27.7613
	1211.16	775.848	27.854
	1213.05	750.39	27.3933
	1214.95	709.828	26.6426
	1216.85	653.257	25.5589
	1218.75	586.325	24.2141
	1220.65	517.362	22.7456
	1222.55	441.867	21.0206
	1224.45	369.3	19.2172
	1226.34	302.094	17.3809
	1228.24	245.087	15.6552
	1230.14	195.934	13.9977
	1232.04	158.983	12.6088
	1233.94	129.228	11.3679
	1235.84	109.187	10.4493
	1237.74	94.6445	9.72854
	1239.63	83.0648	9.11399
	1241.53	74.7848	8.64782
	1243.43	67.286	8.2028
	1245.33	61.5606	7.84606
	1247.23	55.8836	7.47553
	1249.13	50.7634	7.12485
	1251.03	46.667	6.83132
	1252.93	43.7565	6.61487
	1254.82	42.1393	6.49148
	1256.72	41.0738	6.40888
	1258.62	40.4204	6.35771
	1260.52	41.1745	6.41674
	1262.42	41.773	6.4632
	1264.32	41.8991	6.47295
	1266.22	41.1984	6.4186
	1268.11	41.2329	6.42129
	1270.01	42.749	6.53827
	1271.91	43.5095	6.59617
	1273.81	44.8169	6.69454
	1275.71	45.5065	6.74585
	1277.61	45.843	6.77074
	1279.51	46.623	6.82811
	1281.4	46.7159	6.8349
	1283.3	47.7323	6.90886
	1285.2	47.4647	6.88946
	1287.1	47.4146	6.88583
	1289	46.0777	6.78806
	1290.9	45.4217	6.73956
	1292.8	44.7484	6.68943
	1294.69	44.195	6.64793
	1296.59	43.5107	6.59627
	1298.49	42.7086	6.53518
	1300.39	42.7882	6.54127
	1302.29	42.6737	6.53251
	1304.19	43.4473	6.59146
	1306.09	43.3081	6.58089
	1307.99	44.1538	6.64483
	1309.88	44.6947	6.68541
	1311.78	45.753	6.7641
	1313.68	46.9872	6.85472
	1315.58	47.2626	6.87478
	1317.48	47.3613	6.88195
	1319.38	46.2371	6.79979
	1321.28	45.0638	6.71296
	1323.17	43.4357	6.59058
	1325.07	41.4078	6.43489
	1326.97	38.8089	6.22968
	1328.87	36.1009	6.0084
	1330.77	33.1501	5.75761
	1332.67	29.9592	5.4735
	1334.57	26.5937	5.1569
	1336.46	23.4257	4.84001
	1338.36	20.7657	4.55694
	1340.26	18.5057	4.30183
	1342.16	16.8625	4.10639
	1344.06	14.968	3.86885
	1345.96	13.2413	3.63885
	1347.86	11.714	3.42258
	1349.75	10.1844	3.19131
	1351.65	8.63588	2.93869
	1353.55	6.80262	2.60818
	1355.45	5.00645	2.23751
	1357.35	3.59311	1.89555
	1359.25	2.13027	1.45955
	1361.15	0.607708	0.779556
	1363.05	-0.543738	0.737386
	1364.94	-1.33294	1.15453
	1366.84	-1.79047	1.33809
	1368.74	-2.42817	1.55826
	1370.64	-2.96393	1.72161
	1372.54	-3.3261	1.82376
	1374.44	-3.12581	1.768
	1376.34	-2.82306	1.6802
	1378.23	-2.51561	1.58607
	1380.13	-2.30692	1.51886
	1382.03	-1.68743	1.29901
	1383.93	-0.819304	0.905154
	1385.83	0.297425	0.545367
	1387.73	1.53464	1.23881
	1389.63	2.97859	1.72586
	1391.52	4.73755	2.17659
	1393.42	6.32873	2.5157
	1395.32	8.14545	2.85402
	1397.22	10.8235	3.28991
	1399.12	13.7261	3.70487
	1401.02	16.3556	4.0442
	1402.92	18.4718	4.29788
	1404.81	21.016	4.58433
	1406.71	22.7558	4.77031
	1408.61	23.9178	4.89059
	1410.51	24.3889	4.93852
	1412.41	24.1105	4.91025
	1414.31	23.3425	4.83141
	1416.21	21.311	4.61639
	1418.11	18.7604	4.33133
	1420	16.019	4.00237
	1421.9	13.6252	3.69123
	1423.8	11.448	3.38348
	1425.7	9.40053	3.06603
	1427.6	7.93298	2.81656
	1429.5	6.65686	2.58009
	1431.4	5.44453	2.33335
	1433.29	4.45736	2.11125
	1435.19	3.56165	1.88723
	1437.09	2.84524	1.68678
	1438.99	1.92008	1.38567
	1440.89	1.19681	1.09399
	1442.79	0.933849	0.966359
	1444.69	0.628853	0.793003
	1446.58	0.273934	0.523387
	1448.48	0.00520004	0.0721113
	1450.38	-0.163207	0.403989
	1452.28	-0.238528	0.488394
	1454.18	-0.0559669	0.236573
	1456.08	-0.251104	0.501103
	1457.98	-0.512905	0.716174
	1459.87	-0.781445	0.883994
	1461.77	-0.932006	0.965405
	1463.67	-0.836269	0.914478
	1465.57	-0.791039	0.889404
	1467.47	-0.770079	0.877541
	1469.37	-0.793661	0.890877
	1471.27	-0.430662	0.656249
	1473.17	-0.487909	0.698505
	1475.06	-0.308304	0.555252
	1476.96	-0.908313	0.953055
	1478.86	-0.603859	0.777084
	1480.76	-0.562943	0.750295
	1482.66	-0.121738	0.348909
	1484.56	-0.144336	0.379916
	1486.46	0.206911	0.454875
	1488.35	0.302009	0.549554
	1490.25	0.0925419	0.304207
	1492.15	0.00380647	0.0616966
	1494.05	-0.182981	0.427763
	1495.95	-0.164063	0.405047
	1497.85	-0.0844642	0.290627
	1499.75	0.256286	0.506247
	1501.64	0.533077	0.730121
	1503.54	0.812442	0.901355
	1505.44	0.891084	0.943973
	1507.34	1.07265	1.03569
	1509.24	1.00866	1.00432
	1511.14	0.994332	0.997162
	1513.04	1.02546	1.01265
	1514.93	0.797808	0.893201
	1516.83	0.983573	0.991753
	1518.73	1.14884	1.07184
	1520.63	1.55102	1.2454
	1522.53	1.34034	1.15773
	1524.43	0.832502	0.912415
	1526.33	0.305992	0.553165
	1528.23	0.023081	0.151924
	1530.12	0.660216	0.812537
	1532.02	0.657246	0.810707
	1533.92	0.639789	0.799868
	1535.82	0.338879	0.582133
	1537.72	0.528764	0.727162
	1539.62	0.77098	0.878055
	1541.52	0.802542	0.895847
	1543.41	0.714303	0.845164
	1545.31	0.700501	0.836959
	1547.21	0.592861	0.769975
	1549.11	0.465671	0.682401
	1551.01	0.0642193	0.253415
	1552.91	-0.0499881	0.22358
	1554.81	0.0102974	0.101476
	1556.7	0.534361	0.731
	1558.6	1.25415	1.11989
	1560.5	1.37208	1.17136
	1562.4	1.00089	1.00045
	1564.3	0.695013	0.833674
	1566.2	0.762425	0.873169
	1568.1	0.724039	0.850905
	1569.99	1.0621	1.03058
	1571.89	1.28635	1.13417
	1573.79	1.85941	1.3636
	1575.69	2.58492	1.60777
	1577.59	2.55449	1.59828
	1579.49	2.6037	1.6136
	1581.39	2.72739	1.65148
	1583.29	2.80181	1.67386
	1585.18	3.07657	1.75401
	1587.08	4.08904	2.02214
	1588.98	5.41929	2.32794
	1590.88	6.04426	2.45851
	1592.78	6.65604	2.57993
	1594.68	7.43485	2.72669
	1596.58	8.41672	2.90116
	1598.47	9.60536	3.09925
	1600.37	10.7385	3.27696
	1602.27	11.975	3.46049
	1604.17	13.1226	3.62251
	1606.07	14.2474	3.77457
	1607.97	15.1043	3.88643
	1609.87	15.4628	3.93228
	1611.76	15.8821	3.98523
	1613.66	16.4942	4.06131
	1615.56	17.3108	4.16063
	1617.46	17.6598	4.20236
	1619.36	18.0348	4.24674
	1621.26	18.4785	4.29866
	1623.16	18.6388	4.31727
	1625.05	18.3351	4.28195
	1626.95	18.2393	4.27075
	1628.85	18.0581	4.24948
	1630.75	18.1092	4.2555
	1632.65	18.0393	4.24727
	1634.55	18.208	4.26708
	1636.45	18.582	4.31068
	1638.34	19.1579	4.37697
	1640.24	20.5181	4.52969
	1642.14	21.774	4.66627
	1644.04	24.063	4.9054
	1645.94	26.9195	5.1884
	1647.84	29.9504	5.4727
	1649.74	34.6297	5.8847
	1651.64	40.0865	6.33139
	1653.53	46.409	6.81242
	1655.43	53.0979	7.28683
	1657.33	57.812	7.60342
	1659.23	61.4629	7.83983
	1661.13	62.7024	7.91849
	1663.03	62.9617	7.93484
	1664.93	60.4839	7.77714
	1666.82	56.0438	7.48624
	1668.72	50.7247	7.12213
	1670.62	44.7054	6.68621
	1672.52	39.7556	6.3052
	1674.42	34.9815	5.91452
	1676.32	31.1282	5.57926
	1678.22	27.8546	5.27774
	1680.11	24.1385	4.9131
	1682.01	20.7102	4.55085
	1683.91	17.6893	4.20587
	1685.81	14.9684	3.86891
	1687.71	12.822	3.58078
	1689.61	10.5321	3.24533
	1691.51	8.47171	2.91062
	1693.4	7.15504	2.67489
	1695.3	6.32717	2.51539
	1697.2	5.26365	2.29426
	1699.1	3.94707	1.98672
	1701	2.70247	1.64392
	1702.9	1.86021	1.3639
	1704.8	1.45181	1.20491
	1706.7	1.47135	1.21299
	1708.59	1.1728	1.08296
	1710.49	0.857335	0.925924
	1712.39	0.0565217	0.237743
	1714.29	-0.248388	0.498385
	1716.19	-0.507254	0.712217
	1718.09	-0.740957	0.860788
	1719.99	-0.746778	0.864163
	1721.88	-0.498733	0.70621
	1723.78	-0.186247	0.431564
	1725.68	-0.2439	0.493862
	1727.58	-0.550855	0.742196
	1729.48	-0.850159	0.922041
	1731.38	-1.07156	1.03516
	1733.28	-0.911602	0.954779
	1735.17	-1.04696	1.02321
	1737.07	-0.961151	0.980383
	1738.97	-0.887015	0.941815
	1740.87	-0.473767	0.688307
	1742.77	-0.413713	0.643205
	1744.67	-0.0178041	0.133432
	1746.57	0.564087	0.751057
	1748.46	1.31622	1.14726
	1750.36	2.07409	1.44017
	1752.26	3.07516	1.75361
	1754.16	3.93203	1.98293
	1756.06	4.49044	2.11907
	1757.96	5.37141	2.31763
	1759.86	7.22413	2.68777
	1761.76	9.48818	3.08029
	1763.65	11.6206	3.4089
	1765.55	14.0922	3.75396
	1767.45	17.8543	4.22544
	1769.35	22.7487	4.76956
	1771.25	28.6274	5.35045
	1773.15	35.6297	5.96906
	1775.05	43.563	6.60023
	1776.94	52.5622	7.24998
	1778.84	63.1474	7.94654
	1780.74	75.0118	8.66093
	1782.64	87.6232	9.36073
	1784.54	98.8037	9.94001
	1786.44	109.483	10.4634
	1788.34	117.072	10.82
	1790.23	122.221	11.0554
	1792.13	124.414	11.1541
	1794.03	124.726	11.1681
	1795.93	124.002	11.1356
	1797.83	123.036	11.0922
	1799.73	123.264	11.1024
	1801.63	123.141	11.0969
	1803.52	125.338	11.1954
	1805.42	127.458	11.2897
	1807.32	130.092	11.4058
	1809.22	131.472	11.4661
	1811.12	129.797	11.3929
	1813.02	124.393	11.1532
	1814.92	114.962	10.722
	1816.82	103.886	10.1924
	1818.71	92.3416	9.60945
	1820.61	81.5798	9.03215
	1822.51	71.8444	8.47611
	1824.41	63.9043	7.99401
	1826.31	57.0575	7.55364
	1828.21	51.9908	7.21046
	1830.11	46.9607	6.85279
	1832	43.0543	6.56158
	1833.9	39.0508	6.24907
	1835.8	36.2386	6.01985
	1837.7	33.0387	5.74793
	1839.6	30.6443	5.53573
	1841.5	27.9138	5.28335
	1843.4	25.3852	5.03837
	1845.29	22.4232	4.73532
	1847.19	20.0552	4.47831
	1849.09	17.8866	4.22925
	1850.99	16.1821	4.0227
	1852.89	14.3866	3.79297
	1854.79	13.4399	3.66605
	1856.69	12.2727	3.50324
	1858.58	11.0898	3.33013
	1860.48	9.85149	3.13871
	1862.38	8.55064	2.92415
	1864.28	8.11188	2.84814
	1866.18	8.02973	2.83368
	1868.08	7.60062	2.75692
	1869.98	7.11158	2.66676
	1871.88	6.64795	2.57836
	1873.77	6.52498	2.5544
	1875.67	6.98429	2.64278
	1877.57	7.02664	2.65078
	1879.47	7.19818	2.68294
	1881.37	7.48303	2.73551
	1883.27	8.07945	2.84244
	1885.17	9.00368	3.00061
	1887.06	9.9199	3.14959
	1888.96	11.5903	3.40445
	1890.86	13.3925	3.65958
	1892.76	15.3145	3.91337
	1894.66	17.2109	4.1486
	1896.56	19.9503	4.46658
	1898.46	23.0579	4.80186
	1900.35	25.9343	5.09257
	1902.25	28.4296	5.33194
	1904.15	30.4994	5.52262
	1906.05	32.1317	5.66849
	1907.95	32.4578	5.69717
	1909.85	31.8394	5.64264
	1911.75	29.9536	5.47299
	1913.64	27.2567	5.22079
	1915.54	24.3892	4.93854
	1917.44	21.571	4.64446
	1919.34	18.4456	4.29484
	1921.24	15.7048	3.96293
	1923.14	13.1135	3.62126
	1925.04	10.7018	3.27137
	1926.94	8.48108	2.91223
	1928.83	6.80347	2.60835
	1930.73	5.84168	2.41696
	1932.63	4.8451	2.20116
	1934.53	3.72158	1.92914
	1936.43	2.7311	1.6526
	1938.33	1.74609	1.3214
	1940.23	0.732846	0.856064
	1942.12	0.0990024	0.314647
	1944.02	0.196498	0.44328
	1945.92	0.112697	0.335704
	1947.82	0.184037	0.428995
	1949.72	0.112189	0.334946
	1951.62	0.256662	0.506618
	1953.52	0.517297	0.719234
	1955.41	1.25403	1.11984
	1957.31	2.4637	1.56962
	1959.21	3.92589	1.98139
	1961.11	5.67594	2.38242
	1963.01	7.99162	2.82695
	1964.91	10.9536	3.30963
	1966.81	14.5631	3.81616
	1968.7	18.5465	4.30656
	1970.6	22.7792	4.77276
	1972.5	26.7796	5.1749
	1974.4	29.9325	5.47106
	1976.3	32.0198	5.6586
	1978.2	33.738	5.80845
	1980.1	34.8417	5.90269
	1982	35.6314	5.9692
	1983.89	35.2086	5.93369
	1985.79	34.7594	5.89571
	1987.69	34.2733	5.85434
	1989.59	33.7466	5.80918
	1991.49	33.2886	5.76963
	1993.39	32.8164	5.72856
	1995.29	33.3733	5.77696
	1997.18	35.0439	5.91979
	1999.08	37.4792	6.12202
	2000.98	40.0345	6.32729
	2002.88	42.1856	6.49504
	2004.78	44.4245	6.66517
	2006.68	46.2544	6.80106
	2008.58	47.3384	6.88029
	2010.47	47.747	6.90992
	2012.37	46.7934	6.84057
	2014.27	45.1871	6.72214
	2016.17	44.007	6.63378
	2018.07	42.6741	6.53254
	2019.97	40.7533	6.38383
	2021.87	39.2126	6.262
	2023.76	37.5745	6.1298
	2025.66	35.9422	5.99518
	2027.56	34.0654	5.83656
	2029.46	31.9789	5.65499
	2031.36	29.818	5.46059
	2033.26	28.2438	5.31449
	2035.16	26.8219	5.17899
	2037.06	25.263	5.02623
	2038.95	23.9423	4.89308
	2040.85	22.6415	4.75831
	2042.75	21.1003	4.5935
	2044.65	19.6629	4.43429
	2046.55	18.515	4.30291
	2048.45	17.1859	4.14559
	2050.35	16.2827	4.03518
	2052.24	15.1931	3.89783
	2054.14	14.118	3.75739
	2056.04	13.1197	3.62212
	2057.94	12.5525	3.54295
	2059.84	12.4323	3.52594
	2061.74	11.9683	3.45953
	2063.64	11.6744	3.41678
	2065.53	11.126	3.33556
	2067.43	10.8454	3.29323
	2069.33	10.4847	3.23801
	2071.23	10.5537	3.24864
	2073.13	10.4587	3.23399
	2075.03	10.3011	3.20954
	2076.93	9.79345	3.12945
	2078.82	9.41473	3.06834
	2080.72	9.37521	3.0619
	2082.62	9.52989	3.08705
	2084.52	9.79404	3.12954
	2086.42	10.1527	3.18633
	2088.32	10.4689	3.23556
	2090.22	10.4771	3.23683
	2092.12	10.2117	3.19558
	2094.01	9.81637	3.13311
	2095.91	10.0356	3.1679
	2097.81	10.2182	3.19659
	2099.71	10.1581	3.18717
	2101.61	9.81194	3.1324
	2103.51	9.91116	3.1482
	2105.41	9.83121	3.13548
	2107.3	9.59953	3.09831
	2109.2	9.5897	3.09672
	2111.1	9.37214	3.06139
	2113	9.07547	3.01255
	2114.9	8.51297	2.9177
	2116.8	8.39153	2.89681
	2118.7	8.20606	2.86462
	2120.59	7.95118	2.81978
	2122.49	7.73329	2.78088
	2124.39	7.41831	2.72366
	2126.29	7.00988	2.64762
	2128.19	6.6346	2.57577
	2130.09	6.39421	2.52868
	2131.99	6.03063	2.45574
	2133.88	5.53363	2.35237
	2135.78	4.99434	2.2348
	2137.68	4.78589	2.18767
	2139.58	4.2066	2.051
	2141.48	3.43994	1.85471
	2143.38	2.95948	1.72031
	2145.28	2.7152	1.64779
	2147.17	2.34559	1.53153
	2149.07	1.91859	1.38513
	2150.97	1.42739	1.19474
	2152.87	1.20216	1.09643
	2154.77	0.888792	0.942758
	2156.67	0.324251	0.56943
	2158.57	-0.194443	0.440957
	2160.47	-0.4275	0.653835
	2162.36	-0.42836	0.654492
	2164.26	-0.516393	0.718605
	2166.16	-0.627982	0.792453
	2168.06	-0.555304	0.745187
	2169.96	-0.656568	0.810289
	2171.86	-0.693831	0.832965
	2173.76	-0.676526	0.822512
	2175.65	-0.42396	0.651122
	2177.55	-0.0900729	0.300122
	2179.45	0.0608073	0.246591
	2181.35	0.0718439	0.268037
	2183.25	0.1653	0.406571
	2185.15	0.652394	0.807709
	2187.05	1.10345	1.05045
	2188.94	1.61799	1.272
	2190.84	1.76437	1.32829
	2192.74	2.01187	1.4184
	2194.64	2.17523	1.47487
	2196.54	2.42369	1.55682
	2198.44	2.46516	1.57008
	2200.34	2.26305	1.50434
	2202.23	1.92718	1.38823
	2204.13	1.30203	1.14107
	2206.03	0.569756	0.754822
	2207.93	0.0873144	0.29549
	2209.83	-0.164852	0.40602
	2211.73	0.0795069	0.28197
	2213.63	0.29303	0.541323
	2215.53	0.489869	0.699906
	2217.42	1.34652	1.1604
	2219.32	2.57288	1.60402
	2221.22	4.07512	2.01869
	2223.12	5.14944	2.26924
	2225.02	6.27336	2.50467
	2226.92	6.31914	2.51379
	2228.82	5.58082	2.36238
	2230.71	4.46529	2.11312
	2232.61	3.69368	1.92189
	2234.51	3.40644	1.84565
	2236.41	3.49044	1.86827
	2238.31	3.79445	1.94793
	2240.21	4.23306	2.05744
	2242.11	4.4945	2.12002
	2244	4.67025	2.16108
	2245.9	4.82592	2.1968
	2247.8	5.16972	2.2737
	2249.7	5.17644	2.27518
	2251.6	5.22062	2.28487
	2253.5	5.03582	2.24406
	2255.4	4.77145	2.18436
	2257.29	4.20326	2.05019
	2259.19	3.80723	1.95121
	2261.09	3.69757	1.92291
	2262.99	3.20668	1.79072
	2264.89	2.58586	1.60806
	2266.79	2.09703	1.44811
	2268.69	1.75018	1.32294
	2270.59	1.5812	1.25746
	2272.48	1.31181	1.14534
	2274.38	1.06145	1.03027
	2276.28	0.867233	0.931253
	2278.18	0.650085	0.806279
	2280.08	0.276708	0.52603
	2281.98	-0.00238595	0.0488462
	2283.88	0.109016	0.330176
	2285.77	0.261903	0.511765
	2287.67	0.229998	0.479581
	2289.57	-0.00593412	0.0770332
	2291.47	-0.10365	0.321948
	2293.37	-0.0637088	0.252406
	2295.27	-0.0708695	0.266213
	2297.17	-0.125004	0.353559
	2299.06	-0.0850419	0.291619
	2300.96	0.0672824	0.259389
	2302.86	-0.112974	0.336116
	2304.76	-0.237545	0.487386
	2306.66	-0.116123	0.340768
	2308.56	0.235268	0.485044
	2310.46	0.353164	0.594276
	2312.35	0.460341	0.678484
	2314.25	0.528601	0.72705
	2316.15	0.793671	0.890882
	2318.05	0.678606	0.823775
	2319.95	0.324428	0.569586
	2321.85	0.0828109	0.287769
	2323.75	0.19701	0.443858
	2325.65	0.130924	0.361834
	2327.54	-0.0355094	0.188439
	2329.44	-0.219724	0.468747
	2331.34	0.041167	0.202897
	2333.24	0.146791	0.383133
	2335.14	0.313694	0.560084
	2337.04	0.441229	0.66425
	2338.94	0.534469	0.731074
	2340.83	0.417546	0.646178
	2342.73	0.490605	0.700432
	2344.63	0.69842	0.835715
	2346.53	0.562216	0.749811
	2348.43	0.283412	0.532364
	2350.33	-0.101743	0.318973
	2352.23	0.0498217	0.223208
	2354.12	-0.0129889	0.113969
	2356.02	0.0838959	0.289648
	2357.92	0.190401	0.43635
	2359.82	0.41741	0.646073
	2361.72	0.381148	0.617372
	2363.62	0.375089	0.612445
	2365.52	0.344206	0.586691
	2367.41	0.406178	0.637321
	2369.31	0.29794	0.545839
	2371.21	0.351563	0.592927
	2373.11	0.224187	0.473483
	2375.01	0.194654	0.441197
	2376.91	0.224273	0.473575
	2378.81	0.347328	0.589345
	2380.71	0.306609	0.553722
	2382.6	0.389132	0.623805
	2384.5	0.209014	0.457181
	2386.4	0.255343	0.505315
	2388.3	0.132616	0.364165
	2390.2	0.425819	0.652548
	2392.1	0.566136	0.75242
	2394	0.647975	0.804969
	2395.89	0.422427	0.649944
	2397.79	0.355348	0.59611
	2399.69	0.301789	0.549353
	2401.59	0.0823573	0.28698
	2403.49	-0.157697	0.397111
	2405.39	-0.175514	0.418944
	2407.29	-0.0907044	0.301172
	2409.18	-0.128725	0.358783
	2411.08	-0.0664007	0.257683
	2412.98	0.0859138	0.293111
	2414.88	0.293607	0.541855
	2416.78	0.260265	0.510161
	2418.68	0.0330107	0.181689
	2420.58	-0.30318	0.550618
	2422.47	-0.210302	0.458587
	2424.37	0.188208	0.433829
