Generated file C:/Users/didvk/OneDrive - University of Florida/UF_Isaiah_06-16-2020-Tue/Analysis/Re0.1Mo0.9B2/Re0.1Mo0.9B2_HPXRD_run2_300_20220710 - Copy/mask&dat&fxye_4position/20_ReMoB2_40p0GPa_100psi_release_P1_C4_D1w_138.fxye using DIOPTAS
# == pyFAI calibration ==
# Distance Sample to Detector: 0.2103851508954585 m
# PONI: 8.889e-02, 8.665e-02 m
# Rotations: 0.008634 -0.000915 0.000000 rad
# 
# == Fit2d calibration ==
# Distance Sample-beamCenter: 210.393 mm
# Center: x=493.236, y=515.685 pix
# Tilt: 0.497 deg  TiltPlanRot: -173.953 deg
# 
# Detector Detector	 Spline= None	 PixelSize= 1.720e-04, 1.720e-04 m
#    Detector has a mask: False 
#    Detector has a dark current: False 
#    detector has a flat field: False 
# 
# Wavelength: 4.133e-11 m
# Mask applied: None
# Dark current applied: None
# Flat field applied: None
# Polarization factor: None
# Normalization factor: None
BANK	1	1129	1129 CONS	282.731	1.89862 0.4133 0.0 FXYE
	282.731	0.173521	0.416558
	284.629	1.28544	1.13377
	286.528	0.972597	0.986204
	288.427	1.34427	1.15943
	290.325	1.33242	1.15431
	292.224	2.05184	1.43243
	294.122	2.91453	1.7072
	296.021	2.64248	1.62557
	297.92	2.66266	1.63176
	299.818	2.24531	1.49844
	301.717	2.39384	1.5472
	303.616	2.0813	1.44267
	305.514	1.73148	1.31586
	307.413	0.878635	0.937355
	309.311	1.49102	1.22107
	311.21	1.4267	1.19445
	313.109	1.62035	1.27293
	315.007	1.38628	1.17741
	316.906	1.1447	1.06991
	318.805	0.994328	0.99716
	320.703	1.54888	1.24454
	322.602	2.26008	1.50336
	324.5	2.968	1.72279
	326.399	3.19792	1.78827
	328.298	2.67391	1.63521
	330.196	2.19348	1.48104
	332.095	2.56761	1.60238
	333.993	3.50904	1.87324
	335.892	5.12179	2.26314
	337.791	6.45557	2.54078
	339.689	7.97142	2.82337
	341.588	10.4113	3.22665
	343.487	13.7505	3.70817
	345.385	18.1653	4.26208
	347.284	22.4145	4.7344
	349.182	25.1733	5.0173
	351.081	24.8138	4.98135
	352.98	21.7212	4.6606
	354.878	16.8012	4.09892
	356.777	12.1311	3.48297
	358.676	8.30758	2.88229
	360.574	5.69657	2.38675
	362.473	5.07055	2.25179
	364.371	3.92348	1.98078
	366.27	3.49696	1.87002
	368.169	2.76684	1.66338
	370.067	2.4624	1.5692
	371.966	2.53355	1.59171
	373.864	2.06122	1.4357
	375.763	1.71957	1.31132
	377.662	1.24189	1.1144
	379.56	1.71974	1.31139
	381.459	2.26016	1.50338
	383.358	2.37087	1.53976
	385.256	1.75466	1.32463
	387.155	1.12925	1.06266
	389.053	0.83526	0.913926
	390.952	0.54227	0.73639
	392.851	0.792257	0.890088
	394.749	1.39901	1.1828
	396.648	1.48797	1.21982
	398.547	1.51264	1.22989
	400.445	1.94412	1.39432
	402.344	1.94393	1.39425
	404.242	1.42754	1.1948
	406.141	0.82951	0.910774
	408.04	0.61122	0.781805
	409.938	0.924775	0.961652
	411.837	0.679239	0.82416
	413.735	1.34751	1.16082
	415.634	1.39461	1.18094
	417.533	1.39519	1.18118
	419.431	1.32244	1.14997
	421.33	1.63424	1.27837
	423.229	1.43017	1.1959
	425.127	1.29841	1.13948
	427.026	0.851864	0.922965
	428.924	0.800371	0.894635
	430.823	0.108685	0.329674
	432.722	0.249873	0.499873
	434.62	0.319362	0.565121
	436.519	0.28342	0.532372
	438.418	0.222997	0.472226
	440.316	0.0349663	0.186993
	442.215	0.0615957	0.248185
	444.113	-0.388647	0.623416
	446.012	0.296813	0.544806
	447.911	0.439126	0.662666
	449.809	0.976662	0.988262
	451.708	1.1324	1.06414
	453.606	1.098	1.04786
	455.505	0.785212	0.886122
	457.404	0.729664	0.854204
	459.302	0.950829	0.975105
	461.201	0.767082	0.875832
	463.1	0.377082	0.61407
	464.998	0.154408	0.392948
	466.897	0.107363	0.327664
	468.795	0.211612	0.460013
	470.694	0.750075	0.866069
	472.593	0.960009	0.9798
	474.491	0.853749	0.923986
	476.39	0.349613	0.591281
	478.289	0.443906	0.666263
	480.187	0.373529	0.611171
	482.086	0.642922	0.801824
	483.984	0.465787	0.682486
	485.883	0.70037	0.836881
	487.782	0.683675	0.826846
	489.68	0.801116	0.895051
	491.579	1.00912	1.00455
	493.478	0.459037	0.677522
	495.376	0.119616	0.345855
	497.275	-0.174632	0.41789
	499.173	0.15548	0.394309
	501.072	1.02194	1.01091
	502.971	1.30602	1.14281
	504.869	1.07486	1.03675
	506.768	0.576871	0.75952
	508.666	0.107281	0.327538
	510.565	0.184878	0.429975
	512.464	0.266576	0.51631
	514.362	0.306547	0.553667
	516.261	0.100404	0.316866
	518.16	0.0258968	0.160925
	520.058	0.195241	0.441861
	521.957	0.328097	0.572798
	523.855	0.0505045	0.224732
	525.754	0.261814	0.511678
	527.653	0.453753	0.673612
	529.551	0.593422	0.770339
	531.45	0.588201	0.766943
	533.349	1.11235	1.05468
	535.247	1.19184	1.09172
	537.146	1.29029	1.13591
	539.044	0.959204	0.97939
	540.943	0.925541	0.962051
	542.842	0.443244	0.665765
	544.74	0.479106	0.692175
	546.639	0.311405	0.558037
	548.537	0.237862	0.487711
	550.436	0.11859	0.344369
	552.335	0.476224	0.69009
	554.233	0.24511	0.495085
	556.132	0.141203	0.37577
	558.031	-0.491875	0.701338
	559.929	0.158664	0.398326
	561.828	0.883562	0.93998
	563.726	1.44073	1.2003
	565.625	1.51251	1.22984
	567.524	1.10554	1.05145
	569.422	1.42838	1.19515
	571.321	1.57309	1.25423
	573.22	1.66343	1.28974
	575.118	1.24058	1.11381
	577.017	1.36729	1.16931
	578.915	1.54228	1.24189
	580.814	1.47874	1.21604
	582.713	1.51013	1.22887
	584.611	1.02317	1.01152
	586.51	0.564245	0.751162
	588.408	0.159616	0.39952
	590.307	0.172422	0.415237
	592.206	0.921188	0.959786
	594.104	1.65826	1.28773
	596.003	2.39807	1.54857
	597.902	1.86658	1.36623
	599.8	1.61161	1.26949
	601.699	0.948941	0.974136
	603.597	0.777201	0.88159
	605.496	0.73995	0.860203
	607.395	0.879846	0.938001
	609.293	0.592369	0.769655
	611.192	0.0732836	0.270709
	613.091	-0.0956038	0.309199
	614.989	-0.0498512	0.223274
	616.888	0.399092	0.631738
	618.786	-0.23364	0.483363
	620.685	-0.22616	0.475562
	622.584	0.575719	0.758761
	624.482	1.29496	1.13796
	626.381	1.35052	1.16212
	628.279	1.18013	1.08634
	630.178	1.64104	1.28103
	632.077	2.65544	1.62955
	633.975	3.48981	1.8681
	635.874	4.05799	2.01444
	637.773	4.73328	2.17561
	639.671	4.84405	2.20092
	641.57	4.98821	2.23343
	643.468	4.66576	2.16004
	645.367	4.57525	2.13898
	647.266	4.02617	2.00653
	649.164	3.44367	1.85571
	651.063	2.55601	1.59875
	652.962	2.76955	1.6642
	654.86	3.98204	1.9955
	656.759	5.43004	2.33024
	658.657	7.26987	2.69627
	660.556	9.16632	3.02759
	662.455	12.4048	3.52204
	664.353	16.4067	4.05052
	666.252	21.1779	4.60194
	668.15	25.6113	5.06076
	670.049	29.6299	5.44333
	671.948	32.4255	5.69434
	673.846	34.1011	5.83962
	675.745	33.7037	5.80549
	677.644	32.5581	5.70597
	679.542	30.984	5.56633
	681.441	30.6693	5.53798
	683.339	31.8186	5.6408
	685.238	35.8102	5.98417
	687.137	43.1246	6.56693
	689.035	54.9583	7.41339
	690.934	70.7224	8.40966
	692.833	91.9875	9.59101
	694.731	115.373	10.7412
	696.63	136.334	11.6762
	698.528	149.064	12.2092
	700.427	151.638	12.3141
	702.326	143.907	11.9961
	704.224	128.245	11.3245
	706.123	108.024	10.3935
	708.021	88.0302	9.38244
	709.92	70.3853	8.3896
	711.819	55.8997	7.47661
	713.717	43.447	6.59143
	715.616	33.3816	5.77768
	717.515	25.5349	5.0532
	719.413	19.2361	4.3859
	721.312	15.3949	3.92363
	723.21	11.9447	3.45611
	725.109	9.68161	3.11153
	727.008	7.47335	2.73374
	728.906	5.85812	2.42036
	730.805	4.565	2.13659
	732.704	3.83625	1.95864
	734.602	3.37927	1.83828
	736.501	2.45707	1.56751
	738.399	1.84781	1.35934
	740.298	1.70386	1.30532
	742.197	1.83866	1.35597
	744.095	1.58022	1.25707
	745.994	1.47519	1.21458
	747.892	0.828161	0.910033
	749.791	0.466631	0.683104
	751.69	-0.0528048	0.229793
	753.588	0.170044	0.412364
	755.487	0.0977899	0.312714
	757.386	0.451983	0.672297
	759.284	0.22707	0.476518
	761.183	0.592628	0.769824
	763.081	0.250346	0.500346
	764.98	0.0188681	0.137361
	766.879	0.231428	0.48107
	768.777	0.206166	0.454056
	770.676	0.198793	0.445863
	772.575	-0.156964	0.396187
	774.473	-0.0101926	0.100958
	776.372	0.739799	0.860116
	778.27	0.928404	0.963537
	780.169	0.527146	0.726048
	782.068	0.0304579	0.174522
	783.966	0.0992832	0.315092
	785.865	0.417385	0.646053
	787.764	0.700152	0.836751
	789.662	0.70589	0.840172
	791.561	0.680146	0.82471
	793.459	0.53015	0.728114
	795.358	0.0230867	0.151943
	797.257	0.327288	0.572091
	799.155	0.477166	0.690772
	801.054	0.640356	0.800223
	802.952	0.220444	0.469515
	804.851	0.0744964	0.27294
	806.75	0.0972823	0.311901
	808.648	0.352105	0.593384
	810.547	0.392297	0.626336
	812.446	0.229148	0.478694
	814.344	0.177346	0.421124
	816.243	0.155236	0.394001
	818.141	0.0453715	0.213006
	820.04	0.0541455	0.232692
	821.939	-0.181859	0.426449
	823.837	0.0351782	0.187559
	825.736	-0.0413726	0.203402
	827.635	-0.11949	0.345673
	829.533	-0.427227	0.653626
	831.432	-0.808838	0.899354
	833.33	-0.921593	0.959996
	835.229	-0.710905	0.843152
	837.128	-0.595365	0.771599
	839.026	-0.540088	0.734907
	840.925	-0.736217	0.858031
	842.823	-0.653815	0.808588
	844.722	-0.677458	0.823078
	846.621	-0.528515	0.726991
	848.519	-0.291015	0.539458
	850.418	0.137661	0.371027
	852.317	-0.119435	0.345594
	854.215	-0.283828	0.532755
	856.114	-0.162671	0.403325
	858.012	-0.0917923	0.302972
	859.911	0.369286	0.607689
	861.81	0.588494	0.767134
	863.708	0.944758	0.971987
	865.607	1.63231	1.27762
	867.506	2.14633	1.46504
	869.404	2.59772	1.61174
	871.303	2.50795	1.58365
	873.201	3.45877	1.85978
	875.1	4.36712	2.08977
	876.999	6.01	2.45153
	878.897	6.87068	2.6212
	880.796	7.48345	2.73559
	882.694	8.536	2.92164
	884.593	10.1699	3.18903
	886.492	12.7241	3.56708
	888.39	14.362	3.78972
	890.289	16.6641	4.08216
	892.188	19.3061	4.39387
	894.086	22.9667	4.79236
	895.985	27.5865	5.25228
	897.883	32.1283	5.66818
	899.782	39.2676	6.26638
	901.681	49.0104	7.00074
	903.579	62.2244	7.88825
	905.478	80.9176	8.99542
	907.377	109.273	10.4534
	909.275	150.238	12.2572
	911.174	205.321	14.329
	913.072	280.433	16.7461
	914.971	366.879	19.1541
	916.87	453.598	21.2978
	918.768	530.998	23.0434
	920.667	578.368	24.0493
	922.565	592.776	24.347
	924.464	573.366	23.9451
	926.363	538.912	23.2145
	928.261	496.924	22.2918
	930.16	463.142	21.5207
	932.059	433.789	20.8276
	933.957	425.326	20.6234
	935.856	436.104	20.8831
	937.754	465.215	21.5688
	939.653	513.352	22.6573
	941.552	572.087	23.9183
	943.45	631.358	25.1268
	945.349	683.523	26.1443
	947.248	721.162	26.8545
	949.146	737.549	27.1579
	951.045	740.036	27.2036
	952.943	721.337	26.8577
	954.842	689.039	26.2496
	956.741	637.783	25.2544
	958.639	581.039	24.1047
	960.538	515.845	22.7122
	962.436	453.444	21.2942
	964.335	394.646	19.8657
	966.234	340.714	18.4584
	968.132	293.057	17.1189
	970.031	254.797	15.9624
	971.93	222.739	14.9245
	973.828	196.699	14.0249
	975.727	174.893	13.2247
	977.625	155.885	12.4854
	979.524	141.722	11.9047
	981.423	127.139	11.2756
	983.321	112.834	10.6224
	985.22	97.3265	9.86542
	987.119	81.8759	9.04853
	989.017	64.6392	8.03985
	990.916	51.684	7.18916
	992.814	38.6907	6.22018
	994.713	29.5964	5.44026
	996.612	22.0047	4.69091
	998.51	15.6719	3.95877
	1000.41	11.1351	3.33693
	1002.31	6.83693	2.61475
	1004.21	3.62095	1.90288
	1006.1	1.9668	1.40243
	1008	0.851733	0.922894
	1009.9	0.0749038	0.273686
	1011.8	-0.994148	0.99707
	1013.7	-1.8978	1.3776
	1015.6	-2.53786	1.59307
	1017.5	-2.75586	1.66008
	1019.4	-2.5671	1.60222
	1021.29	-2.01773	1.42047
	1023.19	-1.36312	1.16753
	1025.09	-0.929686	0.964202
	1026.99	-0.800362	0.89463
	1028.89	-0.709632	0.842397
	1030.79	-0.442134	0.664932
	1032.69	-0.106777	0.326767
	1034.58	-0.341044	0.58399
	1036.48	-0.779903	0.883121
	1038.38	-0.985482	0.992714
	1040.28	-0.464545	0.681575
	1042.18	0.467546	0.683773
	1044.08	2.02922	1.42451
	1045.98	3.22962	1.79711
	1047.87	4.69895	2.16771
	1049.77	5.79447	2.40717
	1051.67	6.85374	2.61797
	1053.57	7.31409	2.70446
	1055.47	7.83843	2.79972
	1057.37	8.63361	2.9383
	1059.27	9.76234	3.12447
	1061.16	11.3257	3.36537
	1063.06	12.6854	3.56165
	1064.96	14.3057	3.78228
	1066.86	15.9183	3.98977
	1068.76	17.628	4.19857
	1070.66	19.7998	4.44969
	1072.56	22.3079	4.72313
	1074.46	24.8987	4.98986
	1076.35	27.7552	5.26832
	1078.25	30.4861	5.52142
	1080.15	32.9935	5.744
	1082.05	34.9379	5.91083
	1083.95	37.2165	6.10054
	1085.85	40.1189	6.33395
	1087.75	43.0835	6.5638
	1089.64	46.0705	6.78753
	1091.54	48.433	6.95938
	1093.44	50.8356	7.12991
	1095.34	53.1134	7.28789
	1097.24	54.6057	7.38957
	1099.14	56.3337	7.50558
	1101.04	56.5313	7.51873
	1102.93	56.9319	7.54532
	1104.83	55.8268	7.47173
	1106.73	53.9544	7.34536
	1108.63	50.4892	7.10558
	1110.53	47.8609	6.91816
	1112.43	44.6591	6.68275
	1114.33	41.1511	6.41492
	1116.22	37.394	6.11506
	1118.12	33.6768	5.80317
	1120.02	30.7652	5.54664
	1121.92	27.5101	5.24501
	1123.82	23.8798	4.8867
	1125.72	20.1271	4.48632
	1127.62	16.2102	4.02619
	1129.51	13.2137	3.63506
	1131.41	10.0972	3.17761
	1133.31	7.19541	2.68243
	1135.21	4.33267	2.08151
	1137.11	2.62065	1.61884
	1139.01	1.10079	1.04919
	1140.91	0.272686	0.522194
	1142.81	-0.0216103	0.147004
	1144.7	-0.122214	0.349591
	1146.6	-0.67397	0.820957
	1148.5	-1.37122	1.17099
	1150.4	-1.73501	1.3172
	1152.3	1.93762	1.39198
	1154.2	6.94062	2.6345
	1156.1	12.0288	3.46825
	1157.99	17.1963	4.14685
	1159.89	22.9311	4.78864
	1161.79	28.8182	5.36826
	1163.69	35.1514	5.92886
	1165.59	41.9946	6.48032
	1167.49	50.0797	7.0767
	1169.39	57.5584	7.58673
	1171.28	67.3633	8.20752
	1173.18	79.8658	8.93677
	1175.08	95.0799	9.75089
	1176.98	114.225	10.6876
	1178.88	136.903	11.7006
	1180.78	164.913	12.8418
	1182.68	197.512	14.0539
	1184.57	234.066	15.2992
	1186.47	272.443	16.5058
	1188.37	312.566	17.6795
	1190.27	349.481	18.6944
	1192.17	379.756	19.4873
	1194.07	402.487	20.0621
	1195.97	411.033	20.274
	1197.87	410.428	20.259
	1199.76	397.176	19.9293
	1201.66	375.446	19.3764
	1203.56	347.51	18.6416
	1205.46	321.172	17.9213
	1207.36	292.344	17.0981
	1209.26	264.501	16.2635
	1211.16	238.485	15.443
	1213.05	212.441	14.5753
	1214.95	189.091	13.751
	1216.85	166.916	12.9196
	1218.75	146.975	12.1233
	1220.65	128.344	11.3289
	1222.55	112.292	10.5968
	1224.45	97.9002	9.89445
	1226.34	85.8796	9.26712
	1228.24	76.4118	8.74139
	1230.14	67.2459	8.20036
	1232.04	61.0031	7.81045
	1233.94	54.6245	7.39084
	1235.84	49.0832	7.00594
	1237.74	44.4671	6.66836
	1239.63	39.4545	6.28128
	1241.53	35.9355	5.99462
	1243.43	32.6148	5.71093
	1245.33	30.6179	5.53334
	1247.23	28.4742	5.33612
	1249.13	26.6056	5.15806
	1251.03	25.9213	5.09129
	1252.93	25.2212	5.02207
	1254.82	25.1959	5.01955
	1256.72	25.5194	5.05168
	1258.62	26.0104	5.10004
	1260.52	26.7989	5.17677
	1262.42	27.3527	5.22998
	1264.32	28.4326	5.33223
	1266.22	29.0946	5.39395
	1268.11	30.7978	5.54958
	1270.01	32.8055	5.72761
	1271.91	34.4738	5.87144
	1273.81	35.6791	5.9732
	1275.71	35.9888	5.99906
	1277.61	36.8906	6.07377
	1279.51	37.6541	6.13629
	1281.4	37.8327	6.15083
	1283.3	37.6968	6.13977
	1285.2	37.6863	6.13891
	1287.1	38.5403	6.20808
	1289	38.9048	6.23737
	1290.9	39.2887	6.26807
	1292.8	39.524	6.28681
	1294.69	40.4444	6.35959
	1296.59	41.4287	6.43652
	1298.49	41.8402	6.4684
	1300.39	42.6993	6.53447
	1302.29	42.9912	6.55677
	1304.19	43.6389	6.60597
	1306.09	43.2787	6.57865
	1307.99	42.7987	6.54207
	1309.88	41.1603	6.41563
	1311.78	40.0812	6.33097
	1313.68	39.5578	6.2895
	1315.58	38.2048	6.181
	1317.48	36.7363	6.06105
	1319.38	34.5007	5.87373
	1321.28	32.647	5.71375
	1323.17	30.4446	5.51767
	1325.07	28.0237	5.29374
	1326.97	25.5706	5.05674
	1328.87	22.9186	4.78734
	1330.77	20.9207	4.57391
	1332.67	18.4765	4.29843
	1334.57	16.1635	4.02038
	1336.46	13.6991	3.70122
	1338.36	11.1228	3.33508
	1340.26	9.45849	3.07547
	1342.16	7.95134	2.81981
	1344.06	6.22147	2.49429
	1345.96	4.41205	2.10049
	1347.86	2.95214	1.71818
	1349.75	1.97301	1.40464
	1351.65	0.826162	0.908935
	1353.55	0.103818	0.322208
	1355.45	-0.926486	0.962541
	1357.35	-1.6273	1.27566
	1359.25	-2.41642	1.55448
	1361.15	-2.70333	1.64418
	1363.05	-2.95364	1.71862
	1364.94	-2.50945	1.58412
	1366.84	-1.83729	1.35547
	1368.74	-1.18404	1.08813
	1370.64	-0.596514	0.772343
	1372.54	-0.162907	0.403617
	1374.44	0.672463	0.820039
	1376.34	1.62511	1.2748
	1378.23	2.61655	1.61757
	1380.13	3.73788	1.93336
	1382.03	5.06347	2.25022
	1383.93	6.58536	2.56619
	1385.83	7.91688	2.8137
	1387.73	9.38347	3.06325
	1389.63	10.6753	3.26731
	1391.52	11.6439	3.41232
	1393.42	12.8979	3.59137
	1395.32	14.3245	3.78478
	1397.22	15.1581	3.89334
	1399.12	15.5509	3.94346
	1401.02	15.4137	3.92602
	1402.92	15.1148	3.88777
	1404.81	14.5319	3.81207
	1406.71	13.7348	3.70604
	1408.61	12.9805	3.60284
	1410.51	12.1023	3.47883
	1412.41	10.8056	3.28718
	1414.31	9.5705	3.09362
	1416.21	8.49686	2.91494
	1418.11	7.22529	2.68799
	1420	5.80551	2.40946
	1421.9	4.46776	2.11371
	1423.8	3.7026	1.92421
	1425.7	2.84009	1.68526
	1427.6	2.16338	1.47084
	1429.5	1.80076	1.34192
	1431.4	1.60704	1.26769
	1433.29	0.796132	0.892262
	1435.19	0.166949	0.408594
	1437.09	0.0678133	0.26041
	1438.99	0.0204153	0.142882
	1440.89	0.0880022	0.296652
	1442.79	-0.209875	0.458122
	1444.69	-0.501016	0.707825
	1446.58	-0.588141	0.766903
	1448.48	-0.288858	0.537455
	1450.38	-0.206251	0.454148
	1452.28	-0.378225	0.615
	1454.18	-0.479663	0.692577
	1456.08	-0.635102	0.796933
	1457.98	-0.953622	0.976535
	1459.87	-0.982221	0.99107
	1461.77	-0.50955	0.713828
	1463.67	-0.217123	0.465965
	1465.57	-0.0029568	0.0543765
	1467.47	-0.0569324	0.238605
	1469.37	-0.0206025	0.143536
	1471.27	0.00843127	0.0918219
	1473.17	0.325792	0.570782
	1475.06	-0.0025378	0.0503766
	1476.96	-0.111494	0.333908
	1478.86	-0.302803	0.550275
	1480.76	0.162561	0.403189
	1482.66	0.310555	0.557274
	1484.56	0.60144	0.775525
	1486.46	0.681019	0.825239
	1488.35	0.73992	0.860186
	1490.25	0.532546	0.729758
	1492.15	0.774755	0.880202
	1494.05	1.29264	1.13694
	1495.95	1.53586	1.2393
	1497.85	1.22459	1.10661
	1499.75	1.19325	1.09236
	1501.64	1.57193	1.25376
	1503.54	2.00542	1.41613
	1505.44	1.93696	1.39175
	1507.34	1.42262	1.19274
	1509.24	1.27719	1.13013
	1511.14	0.799932	0.894389
	1513.04	-0.00221804	0.0470961
	1514.93	-0.25514	0.505114
	1516.83	-0.192368	0.438598
	1518.73	0.725473	0.851747
	1520.63	1.09794	1.04782
	1522.53	0.920182	0.959261
	1524.43	0.832203	0.912252
	1526.33	0.414162	0.643554
	1528.23	0.792388	0.890162
	1530.12	1.18849	1.09018
	1532.02	0.766739	0.875636
	1533.92	0.505305	0.710848
	1535.82	0.501433	0.708119
	1537.72	0.334957	0.578755
	1539.62	0.369804	0.608115
	1541.52	0.0877724	0.296264
	1543.41	0.633523	0.795941
	1545.31	0.870985	0.933266
	1547.21	0.89305	0.945013
	1549.11	0.490027	0.700019
	1551.01	0.371129	0.609204
	1552.91	1.09793	1.04782
	1554.81	1.47466	1.21436
	1556.7	1.57352	1.2544
	1558.6	1.27445	1.12892
	1560.5	1.37296	1.17173
	1562.4	1.56534	1.25114
	1564.3	1.97198	1.40427
	1566.2	2.39626	1.54799
	1568.1	2.92394	1.70995
	1569.99	3.42943	1.85187
	1571.89	4.39684	2.09686
	1573.79	4.83245	2.19828
	1575.69	5.8255	2.41361
	1577.59	6.80737	2.60909
	1579.49	7.98103	2.82507
	1581.39	8.62152	2.93624
	1583.29	9.47633	3.07836
	1585.18	10.6898	3.26952
	1587.08	11.7846	3.43287
	1588.98	12.801	3.57785
	1590.88	13.6903	3.70004
	1592.78	14.8445	3.85285
	1594.68	16.1127	4.01406
	1596.58	16.9457	4.11651
	1598.47	17.5919	4.19427
	1600.37	18.3561	4.28441
	1602.27	18.7642	4.33176
	1604.17	19.0472	4.36431
	1606.07	18.9204	4.34976
	1607.97	19.1983	4.38159
	1609.87	18.6868	4.32282
	1611.76	18.1865	4.26456
	1613.66	17.0766	4.13238
	1615.56	16.7654	4.09456
	1617.46	16.6161	4.07629
	1619.36	17.0445	4.1285
	1621.26	17.704	4.20761
	1623.16	18.775	4.33301
	1625.05	20.3634	4.51258
	1626.95	22.5693	4.75072
	1628.85	25.9953	5.09855
	1630.75	30.4371	5.51698
	1632.65	36.3015	6.02507
	1634.55	44.0024	6.63343
	1636.45	52.2926	7.23136
	1638.34	60.8167	7.7985
	1640.24	68.619	8.28366
	1642.14	74.4573	8.62886
	1644.04	77.331	8.7938
	1645.94	76.7738	8.76206
	1647.84	73.2497	8.55861
	1649.74	68.2177	8.2594
	1651.64	63.3139	7.95701
	1653.53	56.399	7.50993
	1655.43	49.2289	7.01633
	1657.33	41.2343	6.42139
	1659.23	34.9035	5.90792
	1661.13	29.7242	5.45199
	1663.03	24.9759	4.99759
	1664.93	20.6831	4.54787
	1666.82	16.7597	4.09387
	1668.72	14.2026	3.76863
	1670.62	11.3634	3.37096
	1672.52	9.77182	3.12599
	1674.42	8.57243	2.92787
	1676.32	7.37237	2.71521
	1678.22	6.38755	2.52736
	1680.11	5.49651	2.34446
	1682.01	4.84611	2.20139
	1683.91	4.27997	2.06881
	1685.81	3.51784	1.87559
	1687.71	3.07231	1.7528
	1689.61	2.37733	1.54186
	1691.51	1.74323	1.32031
	1693.4	1.17053	1.08191
	1695.3	1.38384	1.17637
	1697.2	1.25844	1.1218
	1699.1	1.01214	1.00605
	1701	0.33023	0.574656
	1702.9	-0.180602	0.424973
	1704.8	-0.508246	0.712914
	1706.7	-0.868676	0.932028
	1708.59	-1.00733	1.00366
	1710.49	-1.01873	1.00932
	1712.39	-1.15428	1.07437
	1714.29	-1.17925	1.08593
	1716.19	-1.20662	1.09846
	1718.09	-0.959059	0.979316
	1719.99	-0.68897	0.830042
	1721.88	-0.180023	0.424292
	1723.78	-0.179524	0.423703
	1725.68	-0.218421	0.467355
	1727.58	-0.442258	0.665025
	1729.48	-0.308078	0.555048
	1731.38	-0.046974	0.216735
	1733.28	0.958249	0.978902
	1735.17	1.6457	1.28285
	1737.07	2.41508	1.55405
	1738.97	2.7729	1.6652
	1740.87	3.45808	1.85959
	1742.77	4.57638	2.13925
	1744.67	6.26164	2.50233
	1746.57	8.49747	2.91504
	1748.46	10.8977	3.30117
	1750.36	13.3659	3.65594
	1752.26	16.2533	4.03153
	1754.16	20.074	4.4804
	1756.06	23.8417	4.88279
	1757.96	28.094	5.30037
	1759.86	32.9435	5.73965
	1761.76	38.881	6.23546
	1763.65	45.3611	6.73507
	1765.55	51.4742	7.17455
	1767.45	57.4245	7.5779
	1769.35	63.0261	7.93889
	1771.25	68.9678	8.30468
	1773.15	74.1975	8.6138
	1775.05	78.685	8.87045
	1776.94	82.838	9.10154
	1778.84	87.2926	9.34305
	1780.74	92.4586	9.61554
	1782.64	97.4161	9.86996
	1784.54	102.1	10.1044
	1786.44	106.571	10.3233
	1788.34	110.491	10.5115
	1790.23	113.644	10.6604
	1792.13	115.002	10.7239
	1794.03	114.677	10.7088
	1795.93	112.838	10.6225
	1797.83	109.381	10.4585
	1799.73	104.453	10.2202
	1801.63	97.6609	9.88235
	1803.52	90.1996	9.49735
	1805.42	81.5337	9.0296
	1807.32	73.2834	8.56057
	1809.22	65.5887	8.09869
	1811.12	59.3749	7.70551
	1813.02	54.1014	7.35537
	1814.92	49.7868	7.05598
	1816.82	46.2396	6.79997
	1818.71	43.9012	6.6258
	1820.61	42.5494	6.52299
	1822.51	41.2571	6.42317
	1824.41	39.8728	6.31449
	1826.31	37.4251	6.11761
	1828.21	34.8722	5.90527
	1830.11	31.4461	5.60768
	1832	27.6737	5.26058
	1833.9	23.5886	4.8568
	1835.8	20.1041	4.48376
	1837.7	16.6194	4.07668
	1839.6	13.7233	3.7045
	1841.5	11.3828	3.37384
	1843.4	9.89621	3.14582
	1845.29	8.4984	2.9152
	1847.19	7.14918	2.67379
	1849.09	5.88292	2.42547
	1850.99	5.2005	2.28046
	1852.89	4.60315	2.1455
	1854.79	4.81839	2.19508
	1856.69	4.79807	2.19045
	1858.58	4.83293	2.19839
	1860.48	4.65551	2.15766
	1862.38	4.63712	2.1534
	1864.28	4.90957	2.21575
	1866.18	5.38764	2.32113
	1868.08	6.33373	2.51669
	1869.98	7.31162	2.704
	1871.88	8.56822	2.92715
	1873.77	9.86808	3.14135
	1875.67	11.1787	3.34346
	1877.57	12.435	3.52633
	1879.47	13.6296	3.69183
	1881.37	14.6506	3.82761
	1883.27	15.6008	3.94979
	1885.17	16.6478	4.08018
	1887.06	17.5064	4.18407
	1888.96	17.6496	4.20114
	1890.86	17.722	4.20974
	1892.76	18.1504	4.26032
	1894.66	18.5391	4.30571
	1896.56	18.4443	4.29468
	1898.46	17.9418	4.23578
	1900.35	16.8471	4.10452
	1902.25	15.4641	3.93244
	1904.15	13.4795	3.67144
	1906.05	12.4038	3.5219
	1907.95	10.9282	3.30578
	1909.85	9.4514	3.07431
	1911.75	7.63658	2.76344
	1913.64	6.0263	2.45485
	1915.54	4.46557	2.11319
	1917.44	3.16612	1.77936
	1919.34	1.91812	1.38496
	1921.24	1.26181	1.1233
	1923.14	1.05911	1.02913
	1925.04	1.18196	1.08718
	1926.94	0.791219	0.889505
	1928.83	0.497578	0.705392
	1930.73	0.829361	0.910693
	1932.63	1.10456	1.05098
	1934.53	1.24512	1.11585
	1936.43	1.37998	1.17472
	1938.33	1.90872	1.38156
	1940.23	2.53319	1.5916
	1942.12	3.20501	1.79026
	1944.02	4.47804	2.11614
	1945.92	6.14143	2.47819
	1947.82	8.45525	2.90779
	1949.72	10.871	3.29712
	1951.62	13.5018	3.67447
	1953.52	16.9417	4.11603
	1955.41	20.2113	4.4957
	1957.31	23.4414	4.84163
	1959.21	26.3227	5.13057
	1961.11	29.894	5.46754
	1963.01	32.6298	5.71225
	1964.91	34.5697	5.8796
	1966.81	35.6018	5.96673
	1968.7	35.9279	5.99399
	1970.6	35.5906	5.96579
	1972.5	35.0005	5.91612
	1974.4	34.518	5.87521
	1976.3	33.3926	5.77863
	1978.2	32.0065	5.65743
	1980.1	31.2524	5.59039
	1982	31.1386	5.5802
	1983.89	30.952	5.56345
	1985.79	31.3496	5.59907
	1987.69	31.0581	5.57298
	1989.59	31.7961	5.6388
	1991.49	31.6148	5.6227
	1993.39	31.4445	5.60754
	1995.29	31.0536	5.57257
	1997.18	30.6882	5.5397
	1999.08	29.8602	5.46445
	2000.98	28.854	5.37159
	2002.88	27.5486	5.24868
	2004.78	26.9815	5.19437
	2006.68	25.3088	5.03079
	2008.58	24.0456	4.90364
	2010.47	23.5079	4.84849
	2012.37	23.0105	4.79692
	2014.27	22.4845	4.74179
	2016.17	21.4285	4.6291
	2018.07	20.5572	4.534
	2019.97	19.9226	4.46347
	2021.87	19.3873	4.4031
	2023.76	18.2507	4.27209
	2025.66	16.9513	4.11719
	2027.56	16.1046	4.01305
	2029.46	15.5836	3.94761
	2031.36	15.3238	3.91457
	2033.26	14.9116	3.86156
	2035.16	14.3017	3.78176
	2037.06	13.3336	3.65152
	2038.95	12.4808	3.53281
	2040.85	12.1557	3.4865
	2042.75	11.7516	3.42806
	2044.65	11.2414	3.35282
	2046.55	10.8482	3.29366
	2048.45	10.2265	3.19789
	2050.35	10.2781	3.20594
	2052.24	10.2913	3.20801
	2054.14	10.564	3.25022
	2056.04	10.346	3.21653
	2057.94	10.2561	3.20252
	2059.84	10.1678	3.18869
	2061.74	10.0657	3.17265
	2063.64	10.259	3.20297
	2065.53	10.4328	3.22998
	2067.43	10.6631	3.26544
	2069.33	11.0936	3.33071
	2071.23	11.3067	3.36254
	2073.13	11.5252	3.39488
	2075.03	11.4511	3.38395
	2076.93	11.3797	3.37338
	2078.82	11.5005	3.39124
	2080.72	11.8521	3.44269
	2082.62	12.4216	3.52443
	2084.52	12.845	3.584
	2086.42	13.3668	3.65607
	2088.32	13.6253	3.69125
	2090.22	14.1557	3.76241
	2092.12	14.319	3.78405
	2094.01	14.5681	3.81682
	2095.91	14.6597	3.82879
	2097.81	14.9664	3.86864
	2099.71	14.8053	3.84777
	2101.61	14.6156	3.82303
	2103.51	14.4925	3.8069
	2105.41	14.3453	3.78751
	2107.3	13.9044	3.72886
	2109.2	13.224	3.63648
	2111.1	12.7309	3.56804
	2113	12.1146	3.4806
	2114.9	11.4311	3.38099
	2116.8	10.6458	3.26279
	2118.7	10.1621	3.18781
	2120.59	9.54926	3.09019
	2122.49	8.64571	2.94036
	2124.39	7.75482	2.78475
	2126.29	6.84674	2.61663
	2128.19	5.60805	2.36813
	2130.09	4.32135	2.07878
	2131.99	3.60969	1.89992
	2133.88	3.13313	1.77006
	2135.78	2.42464	1.55713
	2137.68	1.61939	1.27255
	2139.58	1.46558	1.21061
	2141.48	1.28503	1.13359
	2143.38	0.988538	0.994253
	2145.28	0.398305	0.631114
	2147.17	0.0758656	0.275437
	2149.07	-0.386022	0.621306
	2150.97	-0.676997	0.822798
	2152.87	-0.675799	0.82207
	2154.77	-0.641416	0.800885
	2156.67	-0.700799	0.837137
	2158.57	-0.703525	0.838764
	2160.47	-0.395429	0.628832
	2162.36	-0.277663	0.526938
	2164.26	-0.029944	0.173043
	2166.16	0.0510964	0.226045
	2168.06	0.443405	0.665887
	2169.96	0.924517	0.961518
	2171.86	1.42403	1.19333
	2173.76	1.72089	1.31183
	2175.65	1.74494	1.32096
	2177.55	1.89887	1.37799
	2179.45	2.09294	1.4467
	2181.35	2.03082	1.42507
	2183.25	1.801	1.34201
	2185.15	1.46767	1.21148
	2187.05	1.04096	1.02028
	2188.94	0.694587	0.833419
	2190.84	0.748441	0.865125
	2192.74	0.973167	0.986492
	2194.64	1.14668	1.07083
	2196.54	1.30457	1.14218
	2198.44	1.4884	1.22
	2200.34	1.93307	1.39035
	2202.23	2.66352	1.63203
	2204.13	3.2998	1.81653
	2206.03	3.83297	1.9578
	2207.93	4.20556	2.05075
	2209.83	4.46936	2.11409
	2211.73	4.74913	2.17925
	2213.63	4.69915	2.16775
	2215.53	4.71462	2.17132
	2217.42	4.3262	2.07995
	2219.32	3.86502	1.96597
	2221.22	3.22331	1.79536
	2223.12	2.79147	1.67077
	2225.02	2.5442	1.59505
	2226.92	2.35232	1.53373
	2228.82	2.35962	1.5361
	2230.71	2.11117	1.45299
	2232.61	2.42731	1.55798
	2234.51	2.26315	1.50438
	2236.41	1.71201	1.30844
	2238.31	1.08545	1.04185
	2240.21	0.831721	0.911987
	2242.11	0.829032	0.910512
	2244	0.904055	0.950818
	2245.9	0.85674	0.925602
	2247.8	0.75358	0.86809
	2249.7	0.434151	0.658901
	2251.6	0.18982	0.435684
	2253.5	0.102556	0.320244
	2255.4	0.315269	0.561489
	2257.29	0.393738	0.627485
	2259.19	0.404021	0.635627
	2261.09	0.454713	0.674324
	2262.99	0.437996	0.661813
	2264.89	0.278203	0.52745
	2266.79	0.0495833	0.222673
	2268.69	0.0421328	0.205263
	2270.59	-0.114189	0.337918
	2272.48	-0.0661439	0.257184
	2274.38	-0.168676	0.410702
	2276.28	-0.293908	0.542132
	2278.18	-0.263562	0.513383
	2280.08	-0.1884	0.434051
	2281.98	-0.179902	0.424148
	2283.88	-0.212987	0.461506
	2285.77	-0.187794	0.433352
	2287.67	0.0653812	0.255697
	2289.57	0.150521	0.38797
	2291.47	0.0309389	0.175894
	2293.37	0.071116	0.266676
	2295.27	-0.0135255	0.116299
	2297.17	0.0887942	0.297984
	2299.06	0.108628	0.329587
	2300.96	0.184924	0.430028
	2302.86	0.0948996	0.308058
	2304.76	0.105986	0.325555
	2306.66	0.205914	0.453777
	2308.56	0.216309	0.46509
	2310.46	0.111663	0.334161
	2312.35	-0.120361	0.34693
	2314.25	-0.000138125	0.0117527
	2316.15	0.263347	0.513173
	2318.05	0.561664	0.749443
	2319.95	0.367993	0.606624
	2321.85	0.126893	0.35622
	2323.75	0.110008	0.331675
	2325.65	0.168347	0.410301
	2327.54	0.0871971	0.295291
	2329.44	0.0154297	0.124216
	2331.34	-0.0290694	0.170497
	2333.24	-0.0470297	0.216863
	2335.14	0.0390522	0.197616
	2337.04	0.240119	0.490019
	2338.94	0.272286	0.52181
	2340.83	0.131283	0.362329
	2342.73	0.0779357	0.27917
	2344.63	0.168556	0.410555
	2346.53	-0.0166375	0.128987
	2348.43	-0.0601767	0.245309
	2350.33	-0.100833	0.317542
	2352.23	0.0542645	0.232947
	2354.12	-0.0111469	0.105579
	2356.02	0.0647958	0.25455
	2357.92	0.281222	0.530304
	2359.82	0.457348	0.676275
	2361.72	0.230538	0.480144
	2363.62	0.0108542	0.104183
	2365.52	0.0449512	0.212017
	2367.41	0.0952377	0.308606
	2369.31	0.0924086	0.303988
	2371.21	0.127804	0.357496
	2373.11	0.0617373	0.24847
	2375.01	-0.0549443	0.234402
	2376.91	0.0506291	0.225009
	2378.81	-0.000625492	0.0250098
	2380.71	-0.0192661	0.138802
	2382.6	0.0422931	0.205653
	2384.5	0.154589	0.393179
	2386.4	0.0668634	0.25858
	2388.3	-0.0343927	0.185453
	2390.2	0.000178249	0.013351
	2392.1	0.15906	0.398823
	2394	0.269701	0.519327
	2395.89	0.208334	0.456437
	2397.79	0.160692	0.400864
	2399.69	-0.096279	0.310289
	2401.59	-0.0104248	0.102102
	2403.49	-0.0348637	0.186718
	2405.39	0.0756937	0.275125
	2407.29	0.0762535	0.27614
	2409.18	0.161365	0.401703
	2411.08	0.0574016	0.239586
	2412.98	0.0131474	0.114662
	2414.88	-0.176179	0.419737
	2416.78	-0.218508	0.467448
	2418.68	-0.10524	0.324408
	2420.58	0.200586	0.447868
	2422.47	0.211231	0.459599
	2424.37	-0.148769	0.385706
