Generated file C:/Users/didvk/OneDrive - University of Florida/UF_Isaiah_06-16-2020-Tue/Analysis/Re0.1Mo0.9B2/Re0.1Mo0.9B2_HPXRD_run2_300_20220710 - Copy/mask&dat&fxye_4position/21_ReMoB2_25p0GPa_0psi_release_P1_C4_D1w_144.fxye using DIOPTAS
# == pyFAI calibration ==
# Distance Sample to Detector: 0.2103851508954585 m
# PONI: 8.889e-02, 8.665e-02 m
# Rotations: 0.008634 -0.000915 0.000000 rad
# 
# == Fit2d calibration ==
# Distance Sample-beamCenter: 210.393 mm
# Center: x=493.236, y=515.685 pix
# Tilt: 0.497 deg  TiltPlanRot: -173.953 deg
# 
# Detector Detector	 Spline= None	 PixelSize= 1.720e-04, 1.720e-04 m
#    Detector has a mask: False 
#    Detector has a dark current: False 
#    detector has a flat field: False 
# 
# Wavelength: 4.133e-11 m
# Mask applied: None
# Dark current applied: None
# Flat field applied: None
# Polarization factor: None
# Normalization factor: None
BANK	1	1129	1129 CONS	282.731	1.89862 0.4133 0.0 FXYE
	282.731	0.577224	0.759752
	284.629	0.730898	0.854926
	286.528	0.345366	0.587678
	288.427	0.150177	0.387526
	290.325	0.51436	0.717189
	292.224	1.1712	1.08222
	294.122	1.62103	1.2732
	296.021	1.63286	1.27783
	297.92	1.18017	1.08635
	299.818	0.499475	0.706736
	301.717	-0.18909	0.434845
	303.616	-0.296157	0.544203
	305.514	0.523853	0.723777
	307.413	0.969933	0.984852
	309.311	1.29737	1.13902
	311.21	1.51331	1.23016
	313.109	1.43125	1.19635
	315.007	1.63084	1.27704
	316.906	1.30533	1.14251
	318.805	1.50827	1.22812
	320.703	1.78893	1.33751
	322.602	1.9454	1.39478
	324.5	2.21827	1.48938
	326.399	2.12602	1.45809
	328.298	2.57921	1.60599
	330.196	3.20173	1.78934
	332.095	4.58143	2.14043
	333.993	6.00241	2.44998
	335.892	7.25657	2.6938
	337.791	8.58531	2.93007
	339.689	10.811	3.28801
	341.588	13.9962	3.74115
	343.487	17.8088	4.22004
	345.385	20.8858	4.5701
	347.284	21.9036	4.68013
	349.182	20.2101	4.49557
	351.081	16.5081	4.06302
	352.98	12.2829	3.5047
	354.878	8.63431	2.93842
	356.777	6.29898	2.50978
	358.676	5.09321	2.25681
	360.574	3.91788	1.97936
	362.473	3.3818	1.83897
	364.371	3.10216	1.76129
	366.27	3.26154	1.80597
	368.169	2.67214	1.63467
	370.067	2.2241	1.49134
	371.966	2.22888	1.49294
	373.864	2.14129	1.46332
	375.763	1.93468	1.39093
	377.662	1.46933	1.21216
	379.56	1.59417	1.26261
	381.459	1.69393	1.30151
	383.358	1.54498	1.24297
	385.256	1.43086	1.19619
	387.155	1.07532	1.03698
	389.053	0.66807	0.817356
	390.952	0.746339	0.863909
	392.851	0.76183	0.872829
	394.749	0.967087	0.983406
	396.648	0.866992	0.931124
	398.547	0.833212	0.912804
	400.445	0.923218	0.960842
	402.344	0.749404	0.865681
	404.242	0.529261	0.727503
	406.141	0.584068	0.764243
	408.04	0.416295	0.645209
	409.938	1.00516	1.00258
	411.837	1.06265	1.03085
	413.735	1.75592	1.32511
	415.634	1.78562	1.33627
	417.533	1.25346	1.11958
	419.431	0.836903	0.914824
	421.33	0.387595	0.622571
	423.229	0.356019	0.596673
	425.127	0.0718944	0.268131
	427.026	0.395159	0.628617
	428.924	0.555554	0.745355
	430.823	0.865958	0.930569
	432.722	1.1277	1.06193
	434.62	0.711382	0.843434
	436.519	0.751614	0.866957
	438.418	0.267374	0.517082
	440.316	0.302189	0.549717
	442.215	0.197962	0.444929
	444.113	-0.0657013	0.256323
	446.012	-0.245949	0.495932
	447.911	-0.363837	0.603189
	449.809	-0.180944	0.425375
	451.708	0.381151	0.617375
	453.606	0.331273	0.575563
	455.505	0.206887	0.454848
	457.404	0.108011	0.32865
	459.302	0.142207	0.377104
	461.201	0.508759	0.713273
	463.1	0.906832	0.952277
	464.998	1.15104	1.07286
	466.897	1.193	1.09225
	468.795	0.808032	0.898906
	470.694	0.734517	0.85704
	472.593	0.606856	0.77901
	474.491	0.200703	0.447999
	476.39	0.258934	0.508856
	478.289	0.272276	0.521801
	480.187	0.680426	0.824879
	482.086	1.17765	1.0852
	483.984	1.40991	1.1874
	485.883	1.27653	1.12984
	487.782	1.42593	1.19412
	489.68	1.33903	1.15717
	491.579	1.67297	1.29343
	493.478	1.79149	1.33847
	495.376	1.47225	1.21336
	497.275	1.00311	1.00155
	499.173	0.591025	0.768782
	501.072	0.354021	0.594997
	502.971	0.352431	0.593659
	504.869	0.668689	0.817734
	506.768	0.766778	0.875659
	508.666	1.12377	1.06008
	510.565	1.16682	1.08019
	512.464	1.28568	1.13388
	514.362	0.785565	0.886321
	516.261	0.238706	0.488575
	518.16	-0.196121	0.442855
	520.058	0.0437201	0.209093
	521.957	0.803493	0.896378
	523.855	1.21579	1.10263
	525.754	0.786977	0.887117
	527.653	0.245041	0.495016
	529.551	0.0339354	0.184216
	531.45	-0.26009	0.509991
	533.349	-0.333311	0.577331
	535.247	-0.242466	0.492408
	537.146	-0.265701	0.515462
	539.044	0.247607	0.497601
	540.943	0.347456	0.589454
	542.842	0.525211	0.724714
	544.74	-0.00551086	0.0742351
	546.639	0.178017	0.421921
	548.537	0.411929	0.641817
	550.436	0.535692	0.73191
	552.335	0.761418	0.872593
	554.233	0.675654	0.821981
	556.132	0.697708	0.835289
	558.031	0.738076	0.859114
	559.929	0.580137	0.761667
	561.828	1.00511	1.00255
	563.726	1.47736	1.21547
	565.625	1.54591	1.24335
	567.524	1.63251	1.2777
	569.422	1.48757	1.21966
	571.321	1.95405	1.39787
	573.22	2.14667	1.46515
	575.118	1.93682	1.3917
	577.017	1.60845	1.26825
	578.915	1.43955	1.19981
	580.814	1.58951	1.26076
	582.713	1.08297	1.04066
	584.611	0.848136	0.920943
	586.51	0.68344	0.826705
	588.408	1.08925	1.04367
	590.307	1.17178	1.08249
	592.206	1.69531	1.30204
	594.104	1.69192	1.30074
	596.003	1.67945	1.29594
	597.902	1.06879	1.03382
	599.8	0.53072	0.728505
	601.699	0.0698891	0.264365
	603.597	-0.191342	0.437427
	605.496	-0.618617	0.786522
	607.395	-0.178807	0.422856
	609.293	-0.0767765	0.277086
	611.192	0.365038	0.604184
	613.091	0.11535	0.339633
	614.989	-0.103192	0.321235
	616.888	-0.0276759	0.166361
	618.786	-0.393817	0.627548
	620.685	0.390719	0.625075
	622.584	0.99169	0.995836
	624.482	1.76124	1.32712
	626.381	1.98337	1.40832
	628.279	2.60105	1.61278
	630.178	3.32478	1.8234
	632.077	3.85752	1.96406
	633.975	4.43985	2.10709
	635.874	4.06745	2.01679
	637.773	3.83373	1.95799
	639.671	3.66057	1.91326
	641.57	3.54235	1.88211
	643.468	3.12697	1.76832
	645.367	3.32636	1.82383
	647.266	3.53019	1.87888
	649.164	4.32072	2.07863
	651.063	3.99655	1.99914
	652.962	4.79717	2.19024
	654.86	5.59559	2.3655
	656.759	7.1449	2.67299
	658.657	8.56264	2.9262
	660.556	11.1513	3.33936
	662.455	13.8449	3.72087
	664.353	16.6154	4.0762
	666.252	18.377	4.28684
	668.15	19.5805	4.42499
	670.049	20.0378	4.47636
	671.948	20.7218	4.55212
	673.846	21.4112	4.62723
	675.745	23.0537	4.80143
	677.644	25.6662	5.06618
	679.542	30.4441	5.51761
	681.441	37.2679	6.10475
	683.339	47.2471	6.87365
	685.238	59.8113	7.73378
	687.137	75.4414	8.6857
	689.035	92.2122	9.60272
	690.934	108.154	10.3997
	692.833	120.131	10.9604
	694.731	124.894	11.1756
	696.63	120.714	10.987
	698.528	110.232	10.4991
	700.427	95.1554	9.75476
	702.326	80.9398	8.99665
	704.224	66.5083	8.15526
	706.123	53.0205	7.28152
	708.021	40.305	6.34862
	709.92	30.805	5.55022
	711.819	23.488	4.84644
	713.717	18.372	4.28626
	715.616	14.3631	3.78987
	717.515	11.5708	3.40159
	719.413	9.59229	3.09714
	721.312	8.06843	2.8405
	723.21	6.014	2.45235
	725.109	4.75151	2.1798
	727.008	3.62815	1.90477
	728.906	3.37617	1.83743
	730.805	2.72347	1.65029
	732.704	2.15133	1.46674
	734.602	1.86301	1.36492
	736.501	1.82178	1.34973
	738.399	2.10872	1.45214
	740.298	2.56791	1.60247
	742.197	2.49387	1.5792
	744.095	1.8673	1.36649
	745.994	1.44179	1.20074
	747.892	1.06112	1.03011
	749.791	0.891874	0.944391
	751.69	0.514988	0.717626
	753.588	0.42822	0.654385
	755.487	0.306899	0.553985
	757.386	0.637054	0.798157
	759.284	0.459589	0.67793
	761.183	0.41278	0.64248
	763.081	0.460113	0.678317
	764.98	0.594321	0.770922
	766.879	0.771257	0.878213
	768.777	0.784505	0.885723
	770.676	1.25753	1.1214
	772.575	1.17009	1.08171
	774.473	0.893174	0.945079
	776.372	0.812496	0.901385
	778.27	0.442577	0.665265
	780.169	-0.116556	0.341403
	782.068	-0.43308	0.658088
	783.966	-0.440422	0.663643
	785.865	-0.0839554	0.289751
	787.764	-0.101273	0.318234
	789.662	0.0119537	0.109333
	791.561	0.0152031	0.123301
	793.459	0.00628327	0.0792671
	795.358	-0.137824	0.371247
	797.257	0.0365082	0.191071
	799.155	0.146622	0.382913
	801.054	0.300146	0.547856
	802.952	0.12829	0.358176
	804.851	-0.0331213	0.181992
	806.75	-0.36409	0.603399
	808.648	-0.266406	0.516146
	810.547	-0.000640626	0.0253106
	812.446	0.0690307	0.262737
	814.344	-0.00577827	0.076015
	816.243	-0.458285	0.676968
	818.141	-0.780766	0.883609
	820.04	-1.26909	1.12654
	821.939	-0.804579	0.896983
	823.837	-0.681464	0.825509
	825.736	-0.181939	0.426543
	827.635	-0.348192	0.590078
	829.533	-0.439414	0.662883
	831.432	-0.338213	0.581561
	833.33	-0.33861	0.581902
	835.229	-0.272488	0.522004
	837.128	-0.553692	0.744105
	839.026	-0.359544	0.59962
	840.925	-0.305275	0.552517
	842.823	1.04524	1.02237
	844.722	1.90768	1.38119
	846.621	2.97011	1.7234
	848.519	3.58028	1.89216
	850.418	4.33681	2.0825
	852.317	4.80738	2.19257
	854.215	5.19901	2.28013
	856.114	6.24825	2.49965
	858.012	7.38335	2.71723
	859.911	8.50809	2.91686
	861.81	10.1875	3.19179
	863.708	11.8001	3.43513
	865.607	13.5084	3.67538
	867.506	14.7965	3.84662
	869.404	16.0369	4.00461
	871.303	18.0177	4.24472
	873.201	20.2891	4.50434
	875.1	22.6308	4.75719
	876.999	25.2783	5.02775
	878.897	28.2251	5.31273
	880.796	31.6271	5.62379
	882.694	36.1149	6.00957
	884.593	41.138	6.41389
	886.492	46.8711	6.84625
	888.39	53.8376	7.33741
	890.289	63.1715	7.94805
	892.188	74.1397	8.61044
	894.086	88.7097	9.41859
	895.985	108.034	10.394
	897.883	131.886	11.4842
	899.782	163.575	12.7896
	901.681	204.487	14.2999
	903.579	249.368	15.7914
	905.478	295.46	17.189
	907.377	335.415	18.3143
	909.275	365.699	19.1233
	911.174	380.087	19.4958
	913.072	385.778	19.6412
	914.971	381.31	19.5272
	916.87	373.606	19.3289
	918.768	367.552	19.1717
	920.667	368.086	19.1856
	922.565	381.145	19.5229
	924.464	404.074	20.1016
	926.363	439.779	20.9709
	928.261	485.598	22.0363
	930.16	540.031	23.2386
	932.059	598.507	24.4644
	933.957	657.063	25.6332
	935.856	709.732	26.6408
	937.754	742.482	27.2485
	939.653	753.835	27.4561
	941.552	739.982	27.2026
	943.45	698.249	26.4244
	945.349	644.889	25.3947
	947.248	575.618	23.992
	949.146	507.212	22.5214
	951.045	436.186	20.8851
	952.943	373.51	19.3264
	954.842	316.657	17.7949
	956.741	271.652	16.4819
	958.639	237.016	15.3953
	960.538	209.057	14.4588
	962.436	185.063	13.6038
	964.335	163.905	12.8025
	966.234	143.888	11.9953
	968.132	125.063	11.1832
	970.031	105.965	10.2939
	971.93	90.0235	9.48807
	973.828	73.8813	8.59542
	975.727	60.1436	7.75523
	977.625	47.5004	6.89205
	979.524	36.0952	6.00793
	981.423	27.7929	5.2719
	983.321	20.7966	4.56033
	985.22	15.1874	3.8971
	987.119	10.8457	3.29328
	989.017	7.31573	2.70476
	990.916	5.01541	2.23951
	992.814	3.36909	1.83551
	994.713	2.21774	1.48921
	996.612	2.00481	1.41591
	998.51	1.07533	1.03698
	1000.41	0.421571	0.649285
	1002.31	-0.517829	0.719603
	1004.21	-1.34659	1.16043
	1006.1	-2.0022	1.41499
	1008	-2.15877	1.46928
	1009.9	-1.96657	1.40234
	1011.8	-2.19096	1.48019
	1013.7	-2.697	1.64226
	1015.6	-2.53657	1.59266
	1017.5	-2.82296	1.68017
	1019.4	-2.61237	1.61628
	1021.29	-2.64422	1.6261
	1023.19	-2.43496	1.56044
	1025.09	-1.65566	1.28672
	1026.99	-1.10322	1.05034
	1028.89	-0.407346	0.638237
	1030.79	-0.0398359	0.199589
	1032.69	1.01574	1.00784
	1034.58	2.19612	1.48193
	1036.48	3.39296	1.842
	1038.38	4.90841	2.21549
	1040.28	6.32253	2.51446
	1042.18	7.84693	2.80124
	1044.08	9.53841	3.08843
	1045.98	10.7643	3.2809
	1047.87	11.9532	3.45734
	1049.77	13.356	3.65458
	1051.67	14.7247	3.83728
	1053.57	16.871	4.10744
	1055.47	18.4991	4.30106
	1057.37	20.7447	4.55464
	1059.27	22.4825	4.74157
	1061.16	24.1053	4.90972
	1063.06	25.0612	5.00611
	1064.96	26.4615	5.14408
	1066.86	28.478	5.33647
	1068.76	30.3117	5.50561
	1070.66	32.7832	5.72566
	1072.56	34.8672	5.90484
	1074.46	36.2692	6.02239
	1076.35	37.9662	6.16167
	1078.25	39.0209	6.24667
	1080.15	41.0414	6.40636
	1082.05	41.8469	6.46892
	1083.95	42.6488	6.5306
	1085.85	42.8915	6.54916
	1087.75	43.2774	6.57856
	1089.64	43.4448	6.59127
	1091.54	43.5151	6.5966
	1093.44	43.5282	6.59759
	1095.34	42.4195	6.51303
	1097.24	41.437	6.43716
	1099.14	40.1621	6.33736
	1101.04	38.5216	6.20657
	1102.93	36.7626	6.06322
	1104.83	34.478	5.8718
	1106.73	31.1414	5.58045
	1108.63	26.5759	5.15518
	1110.53	23.5093	4.84864
	1112.43	20.4618	4.52348
	1114.33	17.1799	4.14487
	1116.22	14.1515	3.76184
	1118.12	11.4635	3.38578
	1120.02	9.17142	3.02844
	1121.92	6.6722	2.58306
	1123.82	4.57667	2.13932
	1125.72	3.07161	1.7526
	1127.62	1.4441	1.20171
	1129.51	0.555777	0.745505
	1131.41	-0.0879234	0.296519
	1133.31	-0.446034	0.667858
	1135.21	-0.00455573	0.0674961
	1137.11	0.743505	0.862267
	1139.01	2.26938	1.50644
	1140.91	3.73231	1.93192
	1142.81	5.42854	2.32992
	1144.7	8.1662	2.85766
	1146.6	10.3261	3.21342
	1148.5	13.3213	3.64983
	1150.4	16.1987	4.02476
	1152.3	26.8849	5.18506
	1154.2	40.7177	6.38105
	1156.1	52.4093	7.23943
	1157.99	64.9825	8.06117
	1159.89	77.0636	8.77859
	1161.79	91.7004	9.57603
	1163.69	107.8	10.3827
	1165.59	124.109	11.1404
	1167.49	143.636	11.9848
	1169.39	160.9	12.6846
	1171.28	182.09	13.4941
	1173.18	203.45	14.2636
	1175.08	221.253	14.8746
	1176.98	236.41	15.3756
	1178.88	243.977	15.6198
	1180.78	245.552	15.6701
	1182.68	238.345	15.4384
	1184.57	226.858	15.0618
	1186.47	207.778	14.4145
	1188.37	189.899	13.7804
	1190.27	169.223	13.0086
	1192.17	150.068	12.2502
	1194.07	134.946	11.6166
	1195.97	119.194	10.9176
	1197.87	108.217	10.4028
	1199.76	98.1875	9.90896
	1201.66	89.4978	9.46033
	1203.56	82.1574	9.06407
	1205.46	76.0863	8.72275
	1207.36	70.7544	8.41156
	1209.26	65.1289	8.07024
	1211.16	59.4073	7.70762
	1213.05	53.5787	7.31975
	1214.95	48.3969	6.95679
	1216.85	43.5431	6.59872
	1218.75	39.5257	6.28695
	1220.65	36.132	6.01099
	1222.55	33.4881	5.78689
	1224.45	30.7732	5.54736
	1226.34	28.1345	5.3042
	1228.24	25.6788	5.06742
	1230.14	23.3869	4.836
	1232.04	21.8173	4.6709
	1233.94	20.6831	4.54786
	1235.84	19.8838	4.45912
	1237.74	19.5224	4.41842
	1239.63	18.9183	4.34951
	1241.53	18.6928	4.32352
	1243.43	18.5523	4.30724
	1245.33	18.7835	4.33399
	1247.23	18.4319	4.29324
	1249.13	18.1678	4.26237
	1251.03	18.2675	4.27405
	1252.93	18.9852	4.3572
	1254.82	19.8463	4.45492
	1256.72	20.3807	4.5145
	1258.62	20.2484	4.49982
	1260.52	21.3206	4.61742
	1262.42	21.5795	4.64537
	1264.32	21.5065	4.63751
	1266.22	20.3721	4.51354
	1268.11	20.0619	4.47905
	1270.01	20.4419	4.52127
	1271.91	21.0585	4.58895
	1273.81	21.5496	4.64216
	1275.71	21.4642	4.63295
	1277.61	21.84	4.67333
	1279.51	22.443	4.73741
	1281.4	22.8305	4.77813
	1283.3	23.2782	4.82475
	1285.2	23.6226	4.86031
	1287.1	24.0097	4.89997
	1289	24.1333	4.91257
	1290.9	24.2286	4.92226
	1292.8	24.3271	4.93225
	1294.69	24.1431	4.91356
	1296.59	24.0313	4.90217
	1298.49	23.192	4.8158
	1300.39	22.5382	4.74745
	1302.29	22.1139	4.70254
	1304.19	21.3876	4.62467
	1306.09	20.1723	4.49136
	1307.99	18.909	4.34845
	1309.88	18.094	4.25371
	1311.78	17.0689	4.13145
	1313.68	16.2768	4.03445
	1315.58	14.9095	3.86128
	1317.48	14.087	3.75327
	1319.38	13.2405	3.63874
	1321.28	12.6858	3.56171
	1323.17	11.9739	3.46033
	1325.07	10.7811	3.28345
	1326.97	9.4622	3.07607
	1328.87	8.25911	2.87387
	1330.77	7.26017	2.69447
	1332.67	6.18917	2.4878
	1334.57	5.0524	2.24775
	1336.46	3.87749	1.96914
	1338.36	2.95441	1.71884
	1340.26	1.93253	1.39015
	1342.16	0.862799	0.92887
	1344.06	-0.160025	0.400031
	1345.96	-0.91123	0.954583
	1347.86	-1.27936	1.13109
	1349.75	-1.55779	1.24811
	1351.65	-1.88739	1.37382
	1353.55	-2.11396	1.45395
	1355.45	-1.74991	1.32284
	1357.35	-1.53066	1.2372
	1359.25	-1.30805	1.1437
	1361.15	-1.17592	1.0844
	1363.05	-0.472353	0.68728
	1364.94	0.48537	0.696685
	1366.84	1.68054	1.29636
	1368.74	2.59515	1.61095
	1370.64	3.34082	1.82779
	1372.54	4.15039	2.03725
	1374.44	4.90986	2.21582
	1376.34	6.06403	2.46253
	1378.23	7.0425	2.65377
	1380.13	8.10588	2.84708
	1382.03	9.06214	3.01034
	1383.93	10.0736	3.17389
	1385.83	10.9729	3.31254
	1387.73	11.5357	3.39643
	1389.63	11.8809	3.44687
	1391.52	11.951	3.45702
	1393.42	11.9386	3.45523
	1395.32	11.3036	3.36209
	1397.22	10.1408	3.18446
	1399.12	9.04265	3.0071
	1401.02	8.27629	2.87685
	1402.92	7.66107	2.76786
	1404.81	6.80418	2.60848
	1406.71	5.58514	2.36329
	1408.61	4.90427	2.21456
	1410.51	3.90549	1.97623
	1412.41	3.17186	1.78097
	1414.31	2.53078	1.59084
	1416.21	2.28092	1.51027
	1418.11	1.5664	1.25156
	1420	0.680257	0.824777
	1421.9	0.173173	0.416141
	1423.8	-0.0521746	0.228418
	1425.7	-0.243154	0.493106
	1427.6	-0.629401	0.793348
	1429.5	-0.367895	0.606543
	1431.4	0.0249797	0.15805
	1433.29	0.615139	0.784308
	1435.19	0.620109	0.78747
	1437.09	0.352304	0.593552
	1438.99	0.106452	0.32627
	1440.89	-0.220828	0.469923
	1442.79	-0.14483	0.380565
	1444.69	-0.0838555	0.289578
	1446.58	0.0281198	0.16769
	1448.48	-0.0562557	0.237183
	1450.38	-0.18697	0.4324
	1452.28	-0.158307	0.397878
	1454.18	-0.296066	0.544119
	1456.08	-0.549389	0.741208
	1457.98	-0.424478	0.65152
	1459.87	0.0109522	0.104653
	1461.77	0.489472	0.699623
	1463.67	0.489526	0.699661
	1465.57	0.27857	0.527797
	1467.47	0.350188	0.591767
	1469.37	0.225547	0.474918
	1471.27	0.324108	0.569305
	1473.17	0.203387	0.450985
	1475.06	0.054168	0.23274
	1476.96	0.142346	0.377288
	1478.86	0.255314	0.505286
	1480.76	0.645075	0.803166
	1482.66	0.556502	0.745991
	1484.56	0.0543074	0.23304
	1486.46	-0.179721	0.423935
	1488.35	0.150098	0.387425
	1490.25	0.372997	0.610735
	1492.15	0.178454	0.422438
	1494.05	0.0078551	0.088629
	1495.95	-0.199287	0.446416
	1497.85	-0.134472	0.366704
	1499.75	0.249455	0.499455
	1501.64	0.48157	0.693952
	1503.54	0.127681	0.357325
	1505.44	-0.396161	0.629413
	1507.34	-0.25515	0.505124
	1509.24	0.262142	0.511998
	1511.14	0.813171	0.90176
	1513.04	0.547542	0.739961
	1514.93	0.334093	0.578008
	1516.83	0.318364	0.564238
	1518.73	0.788728	0.888104
	1520.63	1.24985	1.11797
	1522.53	1.35382	1.16354
	1524.43	1.24721	1.11678
	1526.33	0.826857	0.909317
	1528.23	0.899126	0.948223
	1530.12	1.18529	1.08871
	1532.02	1.05057	1.02498
	1533.92	1.14122	1.06828
	1535.82	1.51237	1.22978
	1537.72	1.78284	1.33523
	1539.62	2.39058	1.54615
	1541.52	2.73863	1.65488
	1543.41	3.29671	1.81568
	1545.31	4.34036	2.08335
	1547.21	4.624	2.15035
	1549.11	5.13814	2.26675
	1551.01	5.39587	2.3229
	1552.91	6.09595	2.469
	1554.81	6.85736	2.61866
	1556.7	7.98082	2.82503
	1558.6	9.07326	3.01219
	1560.5	10.3856	3.22267
	1562.4	11.3242	3.36515
	1564.3	12.3336	3.51192
	1566.2	13.306	3.64774
	1568.1	14.8722	3.85644
	1569.99	16.4105	4.05099
	1571.89	17.5643	4.19098
	1573.79	18.6613	4.31987
	1575.69	19.5562	4.42223
	1577.59	20.5289	4.53088
	1579.49	21.363	4.62201
	1581.39	21.9065	4.68044
	1583.29	22.0997	4.70103
	1585.18	22.3553	4.72814
	1587.08	22.6544	4.75966
	1588.98	22.9117	4.78662
	1590.88	23.499	4.84758
	1592.78	24.1256	4.91178
	1594.68	24.8114	4.98111
	1596.58	25.1066	5.01065
	1598.47	25.8997	5.08918
	1600.37	27.0621	5.20212
	1602.27	28.6437	5.35198
	1604.17	31.4127	5.6047
	1606.07	34.7394	5.89402
	1607.97	38.6124	6.21389
	1609.87	43.4725	6.59337
	1611.76	47.8631	6.91832
	1613.66	51.9945	7.21072
	1615.56	55.6345	7.45885
	1617.46	59.1413	7.69034
	1619.36	62.6591	7.91575
	1621.26	65.0387	8.06465
	1623.16	65.8299	8.11356
	1625.05	63.9974	7.99984
	1626.95	60.2773	7.76385
	1628.85	54.7841	7.40163
	1630.75	48.5773	6.96974
	1632.65	42.3639	6.50876
	1634.55	35.4536	5.95429
	1636.45	29.6766	5.44762
	1638.34	23.6868	4.86691
	1640.24	19.2332	4.38557
	1642.14	15.4372	3.92902
	1644.04	12.3481	3.51398
	1645.94	10.207	3.19484
	1647.84	8.57659	2.92858
	1649.74	6.81071	2.60973
	1651.64	5.1382	2.26676
	1653.53	4.21043	2.05193
	1655.43	3.62165	1.90306
	1657.33	3.40557	1.84542
	1659.23	2.60481	1.61394
	1661.13	2.21436	1.48807
	1663.03	2.01279	1.41873
	1664.93	1.92138	1.38614
	1666.82	1.82569	1.35118
	1668.72	1.36142	1.1668
	1670.62	0.895956	0.946549
	1672.52	0.570391	0.755242
	1674.42	0.54429	0.73776
	1676.32	0.317183	0.56319
	1678.22	0.161397	0.401742
	1680.11	-0.0249748	0.158034
	1682.01	-0.349127	0.59087
	1683.91	-0.592701	0.769871
	1685.81	-1.00239	1.00119
	1687.71	-0.652481	0.807763
	1689.61	-0.681955	0.825806
	1691.51	-0.949127	0.974231
	1693.4	-1.23443	1.11105
	1695.3	-1.07469	1.03667
	1697.2	-0.56975	0.754818
	1699.1	-0.667583	0.817057
	1701	-0.772473	0.878904
	1702.9	-0.754833	0.868811
	1704.8	-0.701743	0.837701
	1706.7	-0.692242	0.832011
	1708.59	-0.504739	0.71045
	1710.49	0.101104	0.317968
	1712.39	0.734294	0.85691
	1714.29	1.11253	1.05476
	1716.19	1.53736	1.2399
	1718.09	2.30986	1.51982
	1719.99	3.51236	1.87413
	1721.88	4.61702	2.14873
	1723.78	6.36827	2.52354
	1725.68	8.63483	2.93851
	1727.58	11.5018	3.39143
	1729.48	14.1455	3.76105
	1731.38	17.5818	4.19307
	1733.28	21.2349	4.60814
	1735.17	26.1917	5.11778
	1737.07	30.5616	5.52826
	1738.97	35.8089	5.98405
	1740.87	40.6179	6.37322
	1742.77	46.268	6.80206
	1744.67	52.0911	7.21742
	1746.57	58.0319	7.61787
	1748.46	64.358	8.02234
	1750.36	70.2401	8.38094
	1752.26	76.0841	8.72262
	1754.16	82.2306	9.06811
	1756.06	88.7275	9.41953
	1757.96	95.9184	9.7938
	1759.86	103.715	10.1841
	1761.76	111.466	10.5577
	1763.65	118.386	10.8806
	1765.55	124.135	11.1416
	1767.45	128.662	11.3429
	1769.35	131.227	11.4554
	1771.25	132.054	11.4915
	1773.15	129.333	11.3725
	1775.05	124.253	11.1469
	1776.94	116.513	10.7941
	1778.84	108.045	10.3945
	1780.74	98.8986	9.94478
	1782.64	90.5281	9.51463
	1784.54	82.812	9.10011
	1786.44	76.2516	8.73222
	1788.34	70.3774	8.38912
	1790.23	65.4209	8.08832
	1792.13	61.707	7.85538
	1794.03	58.4461	7.64501
	1795.93	56.4561	7.51373
	1797.83	54.3039	7.36912
	1799.73	52.7941	7.26595
	1801.63	49.8035	7.05716
	1803.52	46.703	6.83396
	1805.42	42.2514	6.50011
	1807.32	37.7861	6.14704
	1809.22	32.7182	5.71999
	1811.12	28.0109	5.29253
	1813.02	23.2384	4.82062
	1814.92	19.5636	4.42308
	1816.82	16.5228	4.06483
	1818.71	14.3216	3.78439
	1820.61	12.4864	3.53361
	1822.51	10.8538	3.29451
	1824.41	9.81376	3.13269
	1826.31	9.35417	3.05846
	1828.21	8.96802	2.99466
	1830.11	8.43986	2.90514
	1832	7.32101	2.70574
	1833.9	6.86243	2.61962
	1835.8	6.91952	2.6305
	1837.7	7.16298	2.67638
	1839.6	6.98857	2.64359
	1841.5	7.30435	2.70266
	1843.4	7.50665	2.73983
	1845.29	7.75873	2.78545
	1847.19	7.96864	2.82288
	1849.09	8.8427	2.97367
	1850.99	10.0563	3.17116
	1852.89	11.1929	3.34558
	1854.79	12.5082	3.53669
	1856.69	13.679	3.69852
	1858.58	15.3846	3.92232
	1860.48	17.1486	4.14108
	1862.38	18.5475	4.30668
	1864.28	19.5764	4.42453
	1866.18	20.7308	4.55311
	1868.08	22.3072	4.72305
	1869.98	23.3562	4.83283
	1871.88	23.7302	4.87136
	1873.77	23.4523	4.84276
	1875.67	23.1077	4.80704
	1877.57	22.4225	4.73524
	1879.47	21.3607	4.62177
	1881.37	19.9164	4.46278
	1883.27	18.5383	4.30561
	1885.17	16.2682	4.03339
	1887.06	13.8558	3.72234
	1888.96	11.8392	3.44081
	1890.86	9.9675	3.15713
	1892.76	7.82049	2.79651
	1894.66	5.79127	2.40651
	1896.56	4.5353	2.12962
	1898.46	3.52735	1.87812
	1900.35	2.69111	1.64046
	1902.25	1.94522	1.39471
	1904.15	1.36457	1.16815
	1906.05	0.960275	0.979936
	1907.95	0.614784	0.784082
	1909.85	0.771027	0.878081
	1911.75	0.549436	0.74124
	1913.64	0.178859	0.422917
	1915.54	-0.00188423	0.0434078
	1917.44	0.432791	0.657869
	1919.34	1.13472	1.06523
	1921.24	1.33334	1.1547
	1923.14	2.11849	1.4555
	1925.04	2.9345	1.71304
	1926.94	4.02915	2.00727
	1928.83	5.67635	2.38251
	1930.73	7.45275	2.72997
	1932.63	9.54909	3.09016
	1934.53	11.3019	3.36182
	1936.43	13.6377	3.69293
	1938.33	16.3343	4.04157
	1940.23	18.6432	4.31777
	1942.12	20.7572	4.55601
	1944.02	22.6523	4.75945
	1945.92	24.7538	4.97532
	1947.82	25.7934	5.07873
	1949.72	26.7034	5.16753
	1951.62	27.4449	5.23879
	1953.52	28.4085	5.32996
	1955.41	28.564	5.34453
	1957.31	28.4505	5.3339
	1959.21	28.4205	5.33109
	1961.11	28.661	5.3536
	1963.01	28.3677	5.32614
	1964.91	28.2307	5.31325
	1966.81	28.3354	5.3231
	1968.7	28.7706	5.36383
	1970.6	28.5351	5.34182
	1972.5	28.3833	5.3276
	1974.4	28.0174	5.29315
	1976.3	27.4498	5.23926
	1978.2	26.0365	5.10259
	1980.1	24.7901	4.97896
	1982	23.8153	4.88009
	1983.89	22.7666	4.77143
	1985.79	21.6515	4.65312
	1987.69	20.5801	4.53653
	1989.59	19.7977	4.44946
	1991.49	18.7401	4.32898
	1993.39	17.8678	4.22704
	1995.29	17.0174	4.12522
	1997.18	16.3208	4.03991
	1999.08	15.7185	3.96466
	2000.98	14.7285	3.83777
	2002.88	13.887	3.72652
	2004.78	13.1165	3.62167
	2006.68	12.6922	3.56261
	2008.58	12.0552	3.47206
	2010.47	11.6185	3.40859
	2012.37	11.0143	3.31878
	2014.27	10.7327	3.27609
	2016.17	10.9084	3.30278
	2018.07	10.9404	3.30763
	2019.97	10.5794	3.2526
	2021.87	10.1235	3.18174
	2023.76	9.64799	3.10612
	2025.66	9.49924	3.08208
	2027.56	9.05013	3.00834
	2029.46	9.15653	3.02598
	2031.36	9.46622	3.07672
	2033.26	9.55848	3.09168
	2035.16	9.41768	3.06882
	2037.06	9.20124	3.03335
	2038.95	9.43896	3.07229
	2040.85	9.64742	3.10603
	2042.75	9.47243	3.07773
	2044.65	9.36748	3.06063
	2046.55	9.37451	3.06178
	2048.45	9.515	3.08464
	2050.35	9.55865	3.09171
	2052.24	9.48707	3.08011
	2054.14	9.80612	3.13147
	2056.04	10.3725	3.22063
	2057.94	10.6419	3.26219
	2059.84	10.3217	3.21274
	2061.74	10.1941	3.19282
	2063.64	10.3283	3.21377
	2065.53	10.6824	3.2684
	2067.43	11.1307	3.33627
	2069.33	11.4411	3.38247
	2071.23	11.7852	3.43296
	2073.13	12.1476	3.48534
	2075.03	12.2558	3.50083
	2076.93	12.3974	3.52099
	2078.82	12.7596	3.57205
	2080.72	13.2588	3.64126
	2082.62	13.1012	3.61956
	2084.52	13.2292	3.6372
	2086.42	13.3239	3.6502
	2088.32	13.5557	3.68181
	2090.22	13.3033	3.64737
	2092.12	13.2969	3.64649
	2094.01	13.0987	3.61921
	2095.91	12.8187	3.58033
	2097.81	12.5864	3.54773
	2099.71	12.3834	3.51901
	2101.61	11.9535	3.45739
	2103.51	11.0668	3.32669
	2105.41	10.2541	3.2022
	2107.3	9.4658	3.07665
	2109.2	8.63324	2.93824
	2111.1	8.17472	2.85915
	2113	7.47266	2.73362
	2114.9	6.65419	2.57957
	2116.8	5.7752	2.40316
	2118.7	5.40926	2.32578
	2120.59	4.728	2.1744
	2122.49	3.6822	1.91891
	2124.39	2.81513	1.67784
	2126.29	2.26035	1.50345
	2128.19	1.95692	1.3989
	2130.09	1.53678	1.23967
	2131.99	0.797758	0.893173
	2133.88	0.411419	0.641419
	2135.78	0.164382	0.40544
	2137.68	-0.256225	0.506187
	2139.58	-0.470094	0.685634
	2141.48	-0.445166	0.667208
	2143.38	-0.234365	0.484113
	2145.28	-0.0765803	0.276732
	2147.17	0.0993212	0.315153
	2149.07	0.514598	0.717355
	2150.97	0.539442	0.734467
	2152.87	0.845397	0.919455
	2154.77	1.17564	1.08427
	2156.67	1.43089	1.1962
	2158.57	1.36951	1.17026
	2160.47	1.70321	1.30507
	2162.36	2.29348	1.51442
	2164.26	3.44991	1.85739
	2166.16	4.52097	2.12626
	2168.06	5.1079	2.26007
	2169.96	5.51509	2.34842
	2171.86	6.18009	2.48598
	2173.76	7.15526	2.67493
	2175.65	8.05377	2.83792
	2177.55	9.00278	3.00046
	2179.45	9.92854	3.15096
	2181.35	10.4805	3.23735
	2183.25	11.1258	3.33553
	2185.15	11.7236	3.42398
	2187.05	11.5489	3.39836
	2188.94	11.0231	3.32011
	2190.84	10.2859	3.20717
	2192.74	9.13814	3.02294
	2194.64	7.63243	2.76269
	2196.54	6.14441	2.47879
	2198.44	4.75995	2.18173
	2200.34	3.72707	1.93056
	2202.23	2.85508	1.6897
	2204.13	2.15395	1.46763
	2206.03	1.56293	1.25017
	2207.93	1.13135	1.06365
	2209.83	0.534123	0.730837
	2211.73	0.0211368	0.145385
	2213.63	-0.134399	0.366605
	2215.53	-0.0771407	0.277742
	2217.42	-0.106159	0.325821
	2219.32	-0.289106	0.537686
	2221.22	-0.239179	0.48906
	2223.12	-0.132241	0.363649
	2225.02	-0.0284005	0.168525
	2226.92	-0.0020743	0.0455445
	2228.82	-0.108708	0.329709
	2230.71	-0.133476	0.365344
	2232.61	-0.0140558	0.118557
	2234.51	0.19483	0.441395
	2236.41	0.180715	0.425106
	2238.31	0.298547	0.546395
	2240.21	0.518218	0.719874
	2242.11	0.768609	0.876704
	2244	0.533809	0.730623
	2245.9	0.360687	0.600572
	2247.8	0.186635	0.432013
	2249.7	0.189047	0.434796
	2251.6	0.0515668	0.227083
	2253.5	0.161201	0.401498
	2255.4	0.137846	0.371276
	2257.29	-0.0978001	0.31273
	2259.19	-0.280645	0.52976
	2261.09	-0.291987	0.540358
	2262.99	-0.12158	0.348683
	2264.89	-0.0991561	0.314891
	2266.79	-0.0170018	0.130391
	2268.69	-0.0533011	0.23087
	2270.59	0.070555	0.265622
	2272.48	0.0296625	0.172228
	2274.38	0.0498318	0.22323
	2276.28	0.372478	0.610309
	2278.18	0.195038	0.441631
	2280.08	0.0642437	0.253463
	2281.98	-0.0780335	0.279345
	2283.88	0.044591	0.211166
	2285.77	0.0235745	0.15354
	2287.67	0.150221	0.387584
	2289.57	0.0906677	0.301111
	2291.47	0.178228	0.422171
	2293.37	0.113806	0.337352
	2295.27	-0.0304316	0.174446
	2297.17	-0.0735798	0.271256
	2299.06	-0.0311953	0.176622
	2300.96	0.0903532	0.300588
	2302.86	0.198179	0.445173
	2304.76	0.300356	0.548047
	2306.66	0.427324	0.6537
	2308.56	0.42102	0.648861
	2310.46	0.419816	0.647932
	2312.35	0.197273	0.444154
	2314.25	0.0313538	0.17707
	2316.15	0.0275544	0.165995
	2318.05	0.111918	0.334542
	2319.95	0.199859	0.447056
	2321.85	0.307085	0.554153
	2323.75	0.447495	0.668951
	2325.65	0.320997	0.566566
	2327.54	0.0965077	0.310657
	2329.44	0.0157342	0.125436
	2331.34	0.0897121	0.29952
	2333.24	0.0677126	0.260217
	2335.14	-0.0505114	0.224748
	2337.04	-0.165147	0.406383
	2338.94	-0.0912532	0.302082
	2340.83	-0.131271	0.362314
	2342.73	-0.0360947	0.189986
	2344.63	0.135089	0.367544
	2346.53	0.135519	0.368129
	2348.43	0.161292	0.401611
	2350.33	0.122644	0.350206
	2352.23	0.150537	0.387991
	2354.12	0.245496	0.495476
	2356.02	0.424483	0.651524
	2357.92	0.568314	0.753866
	2359.82	0.398721	0.631444
	2361.72	0.337932	0.58132
	2363.62	0.246694	0.496683
	2365.52	0.248477	0.498475
	2367.41	0.148112	0.384854
	2369.31	0.0298091	0.172653
	2371.21	-0.0202516	0.142308
	2373.11	0.117564	0.342875
	2375.01	0.00725257	0.085162
	2376.91	-0.0146212	0.120918
	2378.81	-0.102225	0.319727
	2380.71	-0.0858931	0.293075
	2382.6	-0.0557736	0.236164
	2384.5	-0.0387788	0.196923
	2386.4	0.00272313	0.0521836
	2388.3	0.12347	0.351383
	2390.2	0.125861	0.354769
	2392.1	0.0724893	0.269238
	2394	0.0615983	0.24819
	2395.89	0.165746	0.407119
	2397.79	0.298932	0.546747
	2399.69	0.295649	0.543737
	2401.59	0.224559	0.473876
	2403.49	0.00921227	0.0959806
	2405.39	-0.0163553	0.127888
	2407.29	-0.0765088	0.276602
	2409.18	-0.152221	0.390155
	2411.08	-0.169061	0.411171
	2412.98	0.0973528	0.312014
	2414.88	0.248089	0.498086
	2416.78	0.0805515	0.283816
	2418.68	-0.00652484	0.0807765
	2420.58	-0.159098	0.398871
	2422.47	-0.0159214	0.12618
	2424.37	0.0444902	0.210927
