Generated file C:/Users/didvk/OneDrive - University of Florida/UF_Isaiah_06-16-2020-Tue/Analysis/Re0.1Mo0.9B2/Re0.1Mo0.9B2_HPXRD_run2_300_20220710 - Copy/mask&dat&fxye_4position/2_ReMoB2_5pGPa_230psi_P1_C4_D1w_029.fxye using DIOPTAS
# == pyFAI calibration ==
# Distance Sample to Detector: 0.2103851508954585 m
# PONI: 8.889e-02, 8.665e-02 m
# Rotations: 0.008634 -0.000915 0.000000 rad
# 
# == Fit2d calibration ==
# Distance Sample-beamCenter: 210.393 mm
# Center: x=493.236, y=515.685 pix
# Tilt: 0.497 deg  TiltPlanRot: -173.953 deg
# 
# Detector Detector	 Spline= None	 PixelSize= 1.720e-04, 1.720e-04 m
#    Detector has a mask: False 
#    Detector has a dark current: False 
#    detector has a flat field: False 
# 
# Wavelength: 4.133e-11 m
# Mask applied: None
# Dark current applied: None
# Flat field applied: None
# Polarization factor: None
# Normalization factor: None
BANK	1	1129	1129 CONS	282.731	1.89862 0.4133 0.0 FXYE
	282.731	0.354493	0.595393
	284.629	0.399727	0.63224
	286.528	0.18507	0.430198
	288.427	0.388013	0.622907
	290.325	0.447709	0.669111
	292.224	1.07139	1.03508
	294.122	0.29559	0.543682
	296.021	0.293914	0.542138
	297.92	0.0269376	0.164127
	299.818	0.890158	0.943482
	301.717	1.11964	1.05813
	303.616	0.610477	0.78133
	305.514	0.3361	0.579742
	307.413	-0.0499882	0.22358
	309.311	0.333595	0.577577
	311.21	1.34828	1.16115
	313.109	2.03852	1.42777
	315.007	2.19409	1.48125
	316.906	1.9143	1.38358
	318.805	1.26946	1.1267
	320.703	1.30641	1.14298
	322.602	1.52695	1.2357
	324.5	1.81545	1.34739
	326.399	1.97971	1.40702
	328.298	1.77529	1.3324
	330.196	1.9201	1.38568
	332.095	2.50204	1.58178
	333.993	3.6292	1.90505
	335.892	9.56794	3.09321
	337.791	17.5597	4.19043
	339.689	20.7592	4.55623
	341.588	24.6952	4.96943
	343.487	24.0823	4.90737
	345.385	17.8846	4.22902
	347.284	9.82988	3.13526
	349.182	7.18379	2.68026
	351.081	4.418	2.1019
	352.98	3.13054	1.76933
	354.878	1.8652	1.36572
	356.777	1.43777	1.19907
	358.676	0.686931	0.828813
	360.574	0.66238	0.813867
	362.473	0.521011	0.721811
	364.371	0.646538	0.804076
	366.27	0.359797	0.599831
	368.169	0.681126	0.825303
	370.067	1.33396	1.15497
	371.966	1.75009	1.32291
	373.864	1.54122	1.24146
	375.763	0.668365	0.817536
	377.662	0.124203	0.352424
	379.56	0.142286	0.377208
	381.459	0.783062	0.884908
	383.358	1.20295	1.09679
	385.256	1.41694	1.19035
	387.155	1.17733	1.08505
	389.053	0.705564	0.839978
	390.952	0.183179	0.427995
	392.851	0.059576	0.244082
	394.749	0.574805	0.758159
	396.648	1.49243	1.22165
	398.547	1.69035	1.30014
	400.445	0.68807	0.8295
	402.344	0.151919	0.389768
	404.242	-0.0114768	0.10713
	406.141	0.192181	0.438385
	408.04	0.812703	0.901501
	409.938	0.955059	0.977271
	411.837	0.963791	0.981729
	413.735	0.237295	0.487129
	415.634	0.286079	0.534864
	417.533	0.516711	0.718826
	419.431	0.983419	0.991675
	421.33	1.1487	1.07177
	423.229	0.87064	0.933081
	425.127	0.871171	0.933366
	427.026	0.265819	0.515576
	428.924	0.346761	0.588865
	430.823	0.457589	0.676454
	432.722	0.402477	0.634411
	434.62	0.484063	0.695746
	436.519	0.209451	0.457658
	438.418	0.386461	0.62166
	440.316	0.147355	0.383869
	442.215	0.330503	0.574894
	444.113	0.263514	0.513336
	446.012	0.417624	0.646239
	447.911	0.363502	0.602911
	449.809	0.768489	0.876635
	451.708	0.982424	0.991173
	453.606	0.82206	0.906675
	455.505	0.437465	0.661412
	457.404	0.821725	0.90649
	459.302	0.780324	0.88336
	461.201	0.736517	0.858205
	463.1	0.749828	0.865926
	464.998	0.98495	0.992446
	466.897	1.04984	1.02462
	468.795	1.20461	1.09755
	470.694	1.46633	1.21092
	472.593	1.56762	1.25205
	474.491	1.47048	1.21263
	476.39	1.21977	1.10443
	478.289	0.179598	0.42379
	480.187	-0.373014	0.610749
	482.086	-0.058406	0.241673
	483.984	0.425396	0.652224
	485.883	0.981767	0.990841
	487.782	1.3098	1.14446
	489.68	1.79319	1.3391
	491.579	1.59959	1.26475
	493.478	1.69667	1.30256
	495.376	1.62593	1.27512
	497.275	1.1571	1.07569
	499.173	0.463259	0.680632
	501.072	-0.0132812	0.115244
	502.971	0.286703	0.535446
	504.869	0.665504	0.815784
	506.768	0.873985	0.934872
	508.666	0.457984	0.676745
	510.565	0.176424	0.420028
	512.464	0.12149	0.348555
	514.362	0.338686	0.581967
	516.261	0.897457	0.947342
	518.16	1.18853	1.0902
	520.058	0.521029	0.721823
	521.957	0.683436	0.826702
	523.855	1.23911	1.11315
	525.754	1.14108	1.06821
	527.653	0.592264	0.769587
	529.551	-0.0383871	0.195926
	531.45	0.046312	0.215202
	533.349	0.891158	0.944012
	535.247	1.59795	1.2641
	537.146	1.04815	1.02379
	539.044	0.476023	0.689944
	540.943	0.0586066	0.242088
	542.842	0.319376	0.565133
	544.74	0.362529	0.602104
	546.639	0.493496	0.702493
	548.537	0.399523	0.632078
	550.436	0.356878	0.597392
	552.335	-0.0134544	0.115993
	554.233	-0.120725	0.347455
	556.132	0.119673	0.345938
	558.031	0.400712	0.633018
	559.929	1.13788	1.06671
	561.828	1.1541	1.07429
	563.726	0.651076	0.806893
	565.625	0.547092	0.739657
	567.524	0.207849	0.455905
	569.422	0.61501	0.784226
	571.321	0.430018	0.655757
	573.22	0.445433	0.667408
	575.118	0.614856	0.784127
	577.017	0.909081	0.953457
	578.915	1.37106	1.17092
	580.814	1.49273	1.22178
	582.713	1.12239	1.05943
	584.611	0.553415	0.743919
	586.51	0.133212	0.364983
	588.408	0.281657	0.530714
	590.307	0.782915	0.884825
	592.206	0.985052	0.992498
	594.104	0.819739	0.905394
	596.003	0.796615	0.892533
	597.902	1.15485	1.07464
	599.8	0.997221	0.99861
	601.699	0.912857	0.955436
	603.597	0.566864	0.752904
	605.496	0.246559	0.496548
	607.395	-0.115619	0.340028
	609.293	0.131582	0.362742
	611.192	-0.0908457	0.301406
	613.091	0.0639989	0.25298
	614.989	0.213166	0.461699
	616.888	0.620747	0.787875
	618.786	0.615662	0.784642
	620.685	1.01891	1.00941
	622.584	1.12485	1.06059
	624.482	0.880818	0.938519
	626.381	0.605569	0.778183
	628.279	0.632445	0.795264
	630.178	0.736021	0.857917
	632.077	0.925264	0.961906
	633.975	0.828463	0.9102
	635.874	0.957732	0.978638
	637.773	0.850469	0.922209
	639.671	1.54644	1.24356
	641.57	2.82688	1.68133
	643.468	3.87841	1.96937
	645.367	5.1297	2.26488
	647.266	5.42737	2.32967
	649.164	5.6821	2.38371
	651.063	4.97191	2.22978
	652.962	4.4805	2.11672
	654.86	3.47519	1.86419
	656.759	3.07338	1.75311
	658.657	2.04787	1.43104
	660.556	1.3414	1.15819
	662.455	1.77077	1.3307
	664.353	2.27466	1.5082
	666.252	3.16665	1.77951
	668.15	4.08231	2.02047
	670.049	5.90167	2.42933
	671.948	11.1781	3.34336
	673.846	17.1978	4.14702
	675.745	40.1418	6.33575
	677.644	68.844	8.29723
	679.542	95.3447	9.76446
	681.441	208.652	14.4448
	683.339	216.749	14.7224
	685.238	195.633	13.9869
	687.137	165.328	12.858
	689.035	139.195	11.7981
	690.934	65.0378	8.0646
	692.833	53.4421	7.31041
	694.731	32.3208	5.68514
	696.63	19.6127	4.42862
	698.528	15.3853	3.92241
	700.427	10.1097	3.17957
	702.326	8.32577	2.88544
	704.224	5.91388	2.43185
	706.123	4.37112	2.09072
	708.021	3.7909	1.94702
	709.92	3.12996	1.76917
	711.819	2.68885	1.63977
	713.717	2.12454	1.45758
	715.616	2.12778	1.45869
	717.515	1.81793	1.34831
	719.413	1.72371	1.3129
	721.312	1.43118	1.19632
	723.21	1.06182	1.03045
	725.109	0.458732	0.677297
	727.008	0.00626913	0.0791778
	728.906	-0.224646	0.473968
	730.805	0.328475	0.573128
	732.704	0.964031	0.981851
	734.602	1.34394	1.15928
	736.501	1.31557	1.14698
	738.399	1.31345	1.14606
	740.298	1.56869	1.25248
	742.197	1.84049	1.35664
	744.095	2.07103	1.43911
	745.994	1.66532	1.29047
	747.892	1.27206	1.12785
	749.791	1.22625	1.10736
	751.69	1.29127	1.13634
	753.588	1.16604	1.07983
	755.487	1.60425	1.26659
	757.386	1.69609	1.30234
	759.284	1.49905	1.22436
	761.183	0.901106	0.949266
	763.081	0.74868	0.865263
	764.98	0.963365	0.981511
	766.879	1.14362	1.0694
	768.777	1.24235	1.11461
	770.676	1.09604	1.04692
	772.575	0.818074	0.904474
	774.473	1.00369	1.00184
	776.372	1.08766	1.04291
	778.27	0.832719	0.912534
	780.169	0.369451	0.607825
	782.068	-0.1815	0.426028
	783.966	-0.0376105	0.193934
	785.865	0.632786	0.795478
	787.764	1.19202	1.0918
	789.662	1.16146	1.07771
	791.561	0.542807	0.736754
	793.459	-0.000835041	0.0288971
	795.358	-0.0528834	0.229964
	797.257	-0.110056	0.331747
	799.155	0.260003	0.509904
	801.054	0.309378	0.556218
	802.952	0.362568	0.602136
	804.851	0.366212	0.605154
	806.75	0.633899	0.796178
	808.648	0.571697	0.756106
	810.547	0.693454	0.832739
	812.446	0.505976	0.71132
	814.344	0.721203	0.849236
	816.243	0.787637	0.887489
	818.141	0.617613	0.785884
	820.04	0.551166	0.742406
	821.939	0.230127	0.479716
	823.837	0.456468	0.675624
	825.736	0.742439	0.861649
	827.635	1.4123	1.1884
	829.533	1.19097	1.09132
	831.432	0.908865	0.953344
	833.33	0.600095	0.774658
	835.229	0.844633	0.919039
	837.128	0.96674	0.983229
	839.026	0.909173	0.953506
	840.925	0.660207	0.812531
	842.823	0.275423	0.524807
	844.722	0.359463	0.599552
	846.621	0.289942	0.538463
	848.519	0.657006	0.810559
	850.418	0.594698	0.771167
	852.317	0.64137	0.800856
	854.215	0.359132	0.599276
	856.114	0.290641	0.539112
	858.012	0.397153	0.630201
	859.911	0.655798	0.809814
	861.81	0.964094	0.981883
	863.708	0.811484	0.900824
	865.607	0.781219	0.883866
	867.506	0.0253923	0.15935
	869.404	0.127307	0.356801
	871.303	0.0176586	0.132886
	873.201	-0.0129494	0.113795
	875.1	-0.480955	0.693509
	876.999	-0.645214	0.803252
	878.897	-0.538543	0.733855
	880.796	-0.203482	0.45109
	882.694	0.189647	0.435485
	884.593	0.671873	0.819678
	886.492	0.606491	0.778775
	888.39	0.758996	0.871204
	890.289	0.550314	0.741832
	892.188	1.31298	1.14585
	894.086	2.1174	1.45513
	895.985	3.40198	1.84445
	897.883	4.72064	2.1727
	899.782	7.24884	2.69237
	901.681	12.3866	3.51946
	903.579	22.0153	4.69205
	905.478	41.5834	6.44852
	907.377	80.7039	8.98354
	909.275	160.663	12.6753
	911.174	302.023	17.3788
	913.072	466.351	21.5952
	914.971	692.567	26.3167
	916.87	916.58	30.2751
	918.768	1201.73	34.6659
	920.667	1545.61	39.3143
	922.565	1720.56	41.4797
	924.464	1689.37	41.1019
	926.363	1457.24	38.1738
	928.261	1290.11	35.918
	930.16	1132.07	33.6463
	932.059	1023.29	31.9889
	933.957	947.3	30.7782
	935.856	902.022	30.0337
	937.754	862.855	29.3744
	939.653	797.025	28.2316
	941.552	704.412	26.5408
	943.45	580.586	24.0953
	945.349	461.465	21.4817
	947.248	356.964	18.8935
	949.146	273.378	16.5341
	951.045	214.782	14.6554
	952.943	170.45	13.0556
	954.842	136.249	11.6726
	956.741	106.781	10.3335
	958.639	82.0191	9.05644
	960.538	61.5391	7.84468
	962.436	46.2258	6.79896
	964.335	35.6587	5.97149
	966.234	26.9567	5.19198
	968.132	20.5193	4.52982
	970.031	15.7222	3.96512
	971.93	11.5868	3.40393
	973.828	8.10564	2.84704
	975.727	5.05606	2.24857
	977.625	3.09479	1.7592
	979.524	1.6189	1.27236
	981.423	0.491357	0.700969
	983.321	-0.293408	0.541671
	985.22	-0.736935	0.858449
	987.119	-0.372814	0.610585
	989.017	0.054878	0.234261
	990.916	1.09881	1.04824
	992.814	1.9785	1.40659
	994.713	3.08752	1.75714
	996.612	4.39544	2.09653
	998.51	5.09249	2.25666
	1000.41	4.69831	2.16756
	1002.31	3.91285	1.97809
	1004.21	2.67952	1.63692
	1006.1	2.01777	1.42048
	1008	1.54496	1.24296
	1009.9	2.40672	1.55136
	1011.8	4.66713	2.16035
	1013.7	8.70264	2.95002
	1015.6	14.3575	3.78913
	1017.5	26.4443	5.1424
	1019.4	36.948	6.07849
	1021.29	54.2848	7.36783
	1023.19	67.2903	8.20306
	1025.09	74.0228	8.60365
	1026.99	68.3563	8.26779
	1028.89	59.9995	7.74594
	1030.79	49.8669	7.06165
	1032.69	42.1693	6.49379
	1034.58	35.7264	5.97716
	1036.48	30.0558	5.48231
	1038.38	25.2485	5.02478
	1040.28	22.2214	4.71396
	1042.18	20.3408	4.51008
	1044.08	19.0719	4.36713
	1045.98	18.5824	4.31073
	1047.87	18.175	4.26322
	1049.77	18.2469	4.27163
	1051.67	18.6655	4.32036
	1053.57	20.787	4.55927
	1055.47	21.8812	4.67773
	1057.37	24.4008	4.93972
	1059.27	27.1585	5.21138
	1061.16	31.1964	5.58537
	1063.06	37.5139	6.12486
	1064.96	44.4426	6.66653
	1066.86	59.7817	7.73186
	1068.76	75.6726	8.699
	1070.66	101.171	10.0584
	1072.56	137.286	11.7169
	1074.46	171.03	13.0778
	1076.35	226.704	15.0567
	1078.25	266.127	16.3134
	1080.15	323.668	17.9908
	1082.05	343.909	18.5448
	1083.95	372.858	19.3095
	1085.85	346.039	18.6021
	1087.75	314.542	17.7353
	1089.64	245.898	15.6811
	1091.54	193.21	13.9
	1093.44	127.271	11.2814
	1095.34	90.7889	9.52832
	1097.24	62.2609	7.89056
	1099.14	42.7551	6.53874
	1101.04	32.4203	5.69388
	1102.93	23.5815	4.85608
	1104.83	18.0865	4.25283
	1106.73	13.5391	3.67954
	1108.63	10.5433	3.24704
	1110.53	8.71181	2.95158
	1112.43	7.44874	2.72924
	1114.33	6.10648	2.47113
	1116.22	5.40106	2.32402
	1118.12	4.96198	2.22755
	1120.02	5.07922	2.25371
	1121.92	5.14835	2.269
	1123.82	5.02289	2.24118
	1125.72	5.75305	2.39855
	1127.62	6.60418	2.56986
	1129.51	7.71946	2.77839
	1131.41	7.78546	2.79024
	1133.31	7.61363	2.75928
	1135.21	6.8982	2.62644
	1137.11	6.40268	2.53035
	1139.01	5.11795	2.26229
	1140.91	4.37032	2.09053
	1142.81	3.36756	1.83509
	1144.7	2.60139	1.61288
	1146.6	1.55368	1.24647
	1148.5	0.806779	0.898209
	1150.4	0.245996	0.49598
	1152.3	-0.328126	0.572823
	1154.2	-0.395335	0.628756
	1156.1	-0.313395	0.559817
	1157.99	-0.373588	0.611218
	1159.89	-0.255084	0.505058
	1161.79	-0.838178	0.915521
	1163.69	-0.897023	0.947113
	1165.59	-1.0703	1.03455
	1167.49	-0.814181	0.90232
	1169.39	-0.804642	0.897018
	1171.28	-0.368521	0.60706
	1173.18	0.0561155	0.236887
	1175.08	0.532603	0.729797
	1176.98	1.6163	1.27134
	1178.88	2.4477	1.56451
	1180.78	3.70303	1.92433
	1182.68	3.44347	1.85566
	1184.57	2.97516	1.72487
	1186.47	2.13618	1.46157
	1188.37	1.74434	1.32074
	1190.27	1.99989	1.41417
	1192.17	2.11666	1.45488
	1194.07	2.43214	1.55953
	1195.97	3.1715	1.78087
	1197.87	4.7031	2.16866
	1199.76	7.67419	2.77023
	1201.66	12.4147	3.52344
	1203.56	19.7527	4.4444
	1205.46	28.8151	5.36797
	1207.36	40.1567	6.33693
	1209.26	52.5987	7.2525
	1211.16	65.0315	8.06421
	1213.05	75.484	8.68816
	1214.95	82.6066	9.08882
	1216.85	86.4792	9.29942
	1218.75	80.8142	8.98967
	1220.65	72.3853	8.50796
	1222.55	63.2241	7.95136
	1224.45	55.1981	7.42954
	1226.34	47.7493	6.91009
	1228.24	42.4978	6.51903
	1230.14	37.3947	6.11512
	1232.04	33.4302	5.78189
	1233.94	29.6946	5.44928
	1235.84	27.115	5.20721
	1237.74	24.5788	4.9577
	1239.63	21.858	4.67526
	1241.53	19.6782	4.43601
	1243.43	17.654	4.20167
	1245.33	16.4464	4.05542
	1247.23	15.7305	3.96617
	1249.13	15.6534	3.95643
	1251.03	15.6282	3.95326
	1252.93	16.1943	4.02422
	1254.82	16.2984	4.03712
	1256.72	17.0458	4.12865
	1258.62	18.2134	4.26772
	1260.52	19.5832	4.42529
	1262.42	22.2	4.71169
	1264.32	23.7472	4.87311
	1266.22	25.8721	5.08647
	1268.11	27.8367	5.27605
	1270.01	29.1327	5.39748
	1271.91	31.9956	5.65647
	1273.81	34.4129	5.86625
	1275.71	38.8541	6.23331
	1277.61	45.1132	6.71664
	1279.51	51.9587	7.20824
	1281.4	63.7941	7.98712
	1283.3	75.7571	8.70386
	1285.2	90.9356	9.53602
	1287.1	106.706	10.3299
	1289	117.512	10.8403
	1290.9	125.878	11.2195
	1292.8	125.05	11.1826
	1294.69	121.205	11.0093
	1296.59	114.097	10.6816
	1298.49	108.357	10.4094
	1300.39	98.7318	9.93639
	1302.29	89.3393	9.45195
	1304.19	78.0812	8.83636
	1306.09	65.4981	8.09309
	1307.99	55.225	7.43136
	1309.88	43.0372	6.56027
	1311.78	34.8608	5.9043
	1313.68	28.3419	5.32371
	1315.58	22.525	4.74605
	1317.48	18.374	4.28649
	1319.38	14.3241	3.78471
	1321.28	11.3606	3.37054
	1323.17	9.13505	3.02243
	1325.07	6.94515	2.63536
	1326.97	5.99131	2.44772
	1328.87	4.95596	2.2262
	1330.77	4.23704	2.05841
	1332.67	3.20374	1.7899
	1334.57	2.43241	1.55962
	1336.46	1.98963	1.41054
	1338.36	0.905831	0.951752
	1340.26	-0.0987471	0.314241
	1342.16	-0.211139	0.459499
	1344.06	-0.0748435	0.273575
	1345.96	0.00969286	0.0984523
	1347.86	-0.23237	0.482048
	1349.75	-0.0778557	0.279026
	1351.65	-0.0851393	0.291786
	1353.55	0.177927	0.421814
	1355.45	0.603283	0.776713
	1357.35	1.5198	1.2328
	1359.25	3.14168	1.77248
	1361.15	4.36636	2.08958
	1363.05	7.2946	2.70085
	1364.94	9.178	3.02952
	1366.84	12.6265	3.55338
	1368.74	14.6176	3.82329
	1370.64	16.5018	4.06224
	1372.54	16.8984	4.11076
	1374.44	16.1798	4.02241
	1376.34	13.002	3.60583
	1378.23	11.3561	3.36988
	1380.13	8.78583	2.96409
	1382.03	6.70837	2.59005
	1383.93	5.72272	2.39222
	1385.83	4.21197	2.05231
	1387.73	3.2071	1.79084
	1389.63	1.48443	1.21837
	1391.52	0.478483	0.691725
	1393.42	0.379997	0.616439
	1395.32	0.417145	0.645868
	1397.22	0.449344	0.670331
	1399.12	0.21406	0.462666
	1401.02	0.146706	0.383023
	1402.92	0.403585	0.635284
	1404.81	0.347721	0.589679
	1406.71	0.304299	0.551633
	1408.61	0.106176	0.325847
	1410.51	0.309832	0.556625
	1412.41	0.301717	0.549287
	1414.31	0.134987	0.367406
	1416.21	-0.319616	0.565346
	1418.11	-0.471697	0.686802
	1420	-0.321709	0.567194
	1421.9	0.177404	0.421194
	1423.8	0.531809	0.729252
	1425.7	0.348846	0.590632
	1427.6	-0.104761	0.323669
	1429.5	-0.326913	0.571763
	1431.4	-0.0198777	0.140988
	1433.29	0.358179	0.598481
	1435.19	0.829189	0.910598
	1437.09	1.17606	1.08446
	1438.99	1.22187	1.10538
	1440.89	0.952452	0.975936
	1442.79	0.80137	0.895193
	1444.69	0.692692	0.832281
	1446.58	0.769579	0.877256
	1448.48	1.02399	1.01192
	1450.38	0.974598	0.987217
	1452.28	0.622325	0.788876
	1454.18	0.493739	0.702666
	1456.08	0.235781	0.485573
	1457.98	0.175515	0.418945
	1459.87	0.00163671	0.0404563
	1461.77	0.124393	0.352694
	1463.67	0.171098	0.41364
	1465.57	0.372194	0.610077
	1467.47	0.345707	0.587969
	1469.37	0.423906	0.65108
	1471.27	0.415173	0.644339
	1473.17	0.773331	0.879392
	1475.06	0.554522	0.744663
	1476.96	0.148439	0.385277
	1478.86	-0.0300889	0.173462
	1480.76	-0.20999	0.458247
	1482.66	-0.15185	0.38968
	1484.56	-0.201986	0.449428
	1486.46	-0.2122	0.460652
	1488.35	0.119151	0.345182
	1490.25	0.00512533	0.0715914
	1492.15	0.0515939	0.227143
	1494.05	-0.200311	0.447561
	1495.95	-0.310726	0.557428
	1497.85	-0.28465	0.533526
	1499.75	0.202463	0.449959
	1501.64	0.708699	0.841843
	1503.54	0.853078	0.923622
	1505.44	0.865019	0.930064
	1507.34	0.825598	0.908624
	1509.24	1.3794	1.17448
	1511.14	1.33378	1.15489
	1513.04	1.44352	1.20146
	1514.93	1.35915	1.16583
	1516.83	1.80608	1.34391
	1518.73	2.12905	1.45913
	1520.63	2.39556	1.54776
	1522.53	2.5327	1.59145
	1524.43	2.89149	1.70044
	1526.33	3.27285	1.8091
	1528.23	3.96215	1.99051
	1530.12	4.88508	2.21022
	1532.02	5.38343	2.32022
	1533.92	6.67712	2.58401
	1535.82	8.53737	2.92188
	1537.72	11.1028	3.33209
	1539.62	13.9576	3.73599
	1541.52	18.2315	4.26984
	1543.41	23.7548	4.87389
	1545.31	30.9432	5.56266
	1547.21	40.3694	6.35369
	1549.11	51.8555	7.20107
	1551.01	66.3468	8.14535
	1552.91	78.8182	8.87796
	1554.81	90.4157	9.50872
	1556.7	94.0549	9.69819
	1558.6	94.8213	9.73762
	1560.5	89.8685	9.4799
	1562.4	83.8066	9.15459
	1564.3	75.7786	8.70509
	1566.2	66.9724	8.18367
	1568.1	56.882	7.54201
	1569.99	47.9484	6.92448
	1571.89	40.803	6.38772
	1573.79	36.0491	6.00409
	1575.69	32.7982	5.72697
	1577.59	31.2913	5.59386
	1579.49	30.6144	5.53302
	1581.39	30.6334	5.53475
	1583.29	30.6638	5.53749
	1585.18	31.3942	5.60305
	1587.08	30.755	5.54572
	1588.98	29.6772	5.44768
	1590.88	27.6096	5.25448
	1592.78	25.6918	5.06871
	1594.68	24.0293	4.90197
	1596.58	22.5978	4.75371
	1598.47	21.1522	4.59915
	1600.37	19.6455	4.43233
	1602.27	17.3114	4.1607
	1604.17	15.3325	3.91567
	1606.07	13.6463	3.69409
	1607.97	12.4768	3.53225
	1609.87	11.5818	3.40321
	1611.76	10.9752	3.31288
	1613.66	10.2176	3.19649
	1615.56	9.39316	3.06483
	1617.46	7.99288	2.82717
	1619.36	7.00969	2.64758
	1621.26	6.08964	2.46772
	1623.16	5.52901	2.35138
	1625.05	4.66983	2.16098
	1626.95	4.09829	2.02442
	1628.85	3.53544	1.88028
	1630.75	3.11029	1.7636
	1632.65	2.48089	1.57508
	1634.55	2.29882	1.51619
	1636.45	1.95217	1.3972
	1638.34	1.52741	1.23588
	1640.24	1.1049	1.05114
	1642.14	1.11501	1.05594
	1644.04	1.19067	1.09118
	1645.94	1.01019	1.00508
	1647.84	0.941094	0.9701
	1649.74	0.643694	0.802305
	1651.64	0.506827	0.711918
	1653.53	0.614917	0.784167
	1655.43	0.732397	0.855802
	1657.33	0.585839	0.765401
	1659.23	0.222681	0.471891
	1661.13	-0.0577131	0.240236
	1663.03	-0.0211913	0.145572
	1664.93	0.153625	0.39195
	1666.82	0.0523726	0.228851
	1668.72	-0.0714386	0.26728
	1670.62	-0.285548	0.534367
	1672.52	-0.220336	0.4694
	1674.42	-0.107139	0.32732
	1676.32	0.318115	0.564017
	1678.22	0.116367	0.341126
	1680.11	-0.288662	0.537273
	1682.01	-0.566544	0.752691
	1683.91	-0.518612	0.720147
	1685.81	-0.555757	0.745491
	1687.71	-0.493974	0.702833
	1689.61	-0.276231	0.525577
	1691.51	0.00596167	0.0772119
	1693.4	0.00173851	0.0416954
	1695.3	-0.250594	0.500594
	1697.2	-0.178538	0.422537
	1699.1	0.373821	0.611409
	1701	1.24202	1.11446
	1702.9	1.91478	1.38376
	1704.8	2.99761	1.73136
	1706.7	4.41848	2.10202
	1708.59	6.43283	2.5363
	1710.49	9.45637	3.07512
	1712.39	12.9351	3.59655
	1714.29	17.4207	4.17381
	1716.19	21.6915	4.65742
	1718.09	26.3206	5.13036
	1719.99	31.1757	5.58352
	1721.88	37.05	6.08687
	1723.78	44.6805	6.68435
	1725.68	52.1958	7.22467
	1727.58	61.5583	7.84591
	1729.48	71.7132	8.46837
	1731.38	80.4622	8.97007
	1733.28	89.3442	9.4522
	1735.17	91.7141	9.57675
	1737.07	94.1837	9.70483
	1738.97	95.0021	9.7469
	1740.87	99.1282	9.95631
	1742.77	107.683	10.3771
	1744.67	117.117	10.8221
	1746.57	131.772	11.4792
	1748.46	147.881	12.1606
	1750.36	154.576	12.4328
	1752.26	156.832	12.5233
	1754.16	156.002	12.4901
	1756.06	150.048	12.2494
	1757.96	140.856	11.8683
	1759.86	133.254	11.5436
	1761.76	120.3	10.9681
	1763.65	107.821	10.3837
	1765.55	94.1619	9.7037
	1767.45	82.5864	9.08771
	1769.35	69.7067	8.34905
	1771.25	57.5221	7.58433
	1773.15	46.0913	6.78906
	1775.05	35.1245	5.92659
	1776.94	28.0773	5.2988
	1778.84	22.1703	4.70854
	1780.74	18.2674	4.27403
	1782.64	14.859	3.85473
	1784.54	12.1565	3.48662
	1786.44	10.1512	3.18609
	1788.34	8.30269	2.88144
	1790.23	6.5759	2.56435
	1792.13	4.73218	2.17536
	1794.03	3.8615	1.96507
	1795.93	3.31654	1.82114
	1797.83	2.93681	1.71371
	1799.73	1.74346	1.3204
	1801.63	0.98822	0.994093
	1803.52	0.834321	0.913412
	1805.42	1.00985	1.00491
	1807.32	0.769676	0.877312
	1809.22	0.40774	0.638545
	1811.12	0.849927	0.921915
	1813.02	2.04156	1.42883
	1814.92	3.13736	1.77126
	1816.82	4.8202	2.19549
	1818.71	7.57366	2.75203
	1820.61	11.6801	3.41761
	1822.51	16.5445	4.0675
	1824.41	22.4651	4.73973
	1826.31	29.3709	5.41949
	1828.21	37.6627	6.13699
	1830.11	46.6793	6.83222
	1832	55.4191	7.4444
	1833.9	63.4754	7.96714
	1835.8	70.6406	8.4048
	1837.7	76.5112	8.74707
	1839.6	81.2028	9.01126
	1841.5	84.7408	9.20548
	1843.4	86.688	9.31064
	1845.29	86.933	9.32379
	1847.19	85.7451	9.25987
	1849.09	83.3051	9.12716
	1850.99	80.408	8.96705
	1852.89	77.8796	8.82494
	1854.79	74.8517	8.65169
	1856.69	73.4742	8.57171
	1858.58	71.701	8.46764
	1860.48	69.6126	8.34342
	1862.38	66.3335	8.14454
	1864.28	61.196	7.82279
	1866.18	53.9438	7.34464
	1868.08	44.8911	6.70008
	1869.98	36.6539	6.05425
	1871.88	29.5889	5.43957
	1873.77	24.4827	4.948
	1875.67	21.0586	4.58897
	1877.57	19.0332	4.3627
	1879.47	18.303	4.2782
	1881.37	18.3934	4.28875
	1883.27	20.1087	4.48427
	1885.17	22.7735	4.77216
	1887.06	27.105	5.20624
	1888.96	32.5244	5.70302
	1890.86	38.2505	6.1847
	1892.76	43.1097	6.5658
	1894.66	46.9118	6.84922
	1896.56	48.8794	6.99138
	1898.46	51.7519	7.19388
	1900.35	55.2504	7.43306
	1902.25	58.0648	7.62003
	1904.15	62.1418	7.88301
	1906.05	61.7498	7.8581
	1907.95	60.9335	7.80599
	1909.85	58.3717	7.64013
	1911.75	55.7092	7.46386
	1913.64	51.2548	7.15924
	1915.54	49.4947	7.03524
	1917.44	47.3153	6.87861
	1919.34	45.9756	6.78053
	1921.24	44.4853	6.66973
	1923.14	41.5431	6.44539
	1925.04	37.9284	6.1586
	1926.94	34.6996	5.89064
	1928.83	31.9316	5.6508
	1930.73	28.2649	5.31648
	1932.63	25.6264	5.06225
	1934.53	21.9344	4.68342
	1936.43	19.5884	4.42588
	1938.33	16.552	4.06842
	1940.23	13.6227	3.69089
	1942.12	10.9893	3.315
	1944.02	10.0317	3.16728
	1945.92	9.30174	3.04988
	1947.82	8.61325	2.93483
	1949.72	7.53662	2.74529
	1951.62	6.95038	2.63636
	1953.52	3.59481	1.896
	1955.41	2.90189	1.70349
	1957.31	2.09965	1.44902
	1959.21	1.47009	1.21247
	1961.11	1.00528	1.00264
	1963.01	0.206712	0.454655
	1964.91	0.116024	0.340624
	1966.81	0.214147	0.46276
	1968.7	0.579999	0.761577
	1970.6	0.311789	0.55838
	1972.5	0.593149	0.770162
	1974.4	1.16351	1.07866
	1976.3	1.63069	1.27698
	1978.2	1.55236	1.24594
	1980.1	1.69779	1.30299
	1982	2.3871	1.54502
	1983.89	2.93593	1.71345
	1985.79	3.55207	1.88469
	1987.69	4.29365	2.07211
	1989.59	4.76859	2.18371
	1991.49	5.30174	2.30255
	1993.39	6.17877	2.48571
	1995.29	7.49563	2.73781
	1997.18	8.71316	2.95181
	1999.08	9.5813	3.09537
	2000.98	10.4489	3.23247
	2002.88	11.3938	3.37547
	2004.78	12.215	3.495
	2006.68	13.2272	3.63692
	2008.58	14.0012	3.74182
	2010.47	14.5855	3.8191
	2012.37	15.3782	3.9215
	2014.27	16.3824	4.04751
	2016.17	17.4593	4.17843
	2018.07	18.655	4.31914
	2019.97	20.0358	4.47614
	2021.87	21.2983	4.61501
	2023.76	22.7009	4.76455
	2025.66	24.4243	4.9421
	2027.56	25.6102	5.06065
	2029.46	26.4018	5.13827
	2031.36	26.5586	5.1535
	2033.26	29.2722	5.41038
	2035.16	32.499	5.70079
	2037.06	37.7502	6.14412
	2038.95	42.447	6.51514
	2040.85	47.851	6.91744
	2042.75	52.7312	7.26162
	2044.65	60.9181	7.80501
	2046.55	67.4552	8.21311
	2048.45	71.4441	8.45246
	2050.35	70.698	8.40821
	2052.24	69.3746	8.32914
	2054.14	65.1624	8.07232
	2056.04	61.5155	7.84318
	2057.94	59.4787	7.71224
	2059.84	58.2987	7.63536
	2061.74	58.2914	7.63488
	2063.64	57.852	7.60605
	2065.53	55.576	7.45493
	2067.43	52.007	7.21159
	2069.33	48.6507	6.97501
	2071.23	44.9053	6.70114
	2073.13	40.8254	6.38947
	2075.03	37.2937	6.10686
	2076.93	32.9447	5.73974
	2078.82	29.3406	5.4167
	2080.72	26.8673	5.18337
	2082.62	23.9072	4.8895
	2084.52	21.1901	4.60328
	2086.42	20.4056	4.51725
	2088.32	19.7968	4.44936
	2090.22	20.4639	4.52371
	2092.12	21.7491	4.66359
	2094.01	23.4508	4.84261
	2095.91	25.7852	5.07792
	2097.81	29.7853	5.45759
	2099.71	34.9519	5.91201
	2101.61	41.2796	6.42492
	2103.51	47.5062	6.89248
	2105.41	52.6852	7.25846
	2107.3	57.8123	7.60344
	2109.2	64.1465	8.00915
	2111.1	69.9837	8.36563
	2113	72.0164	8.48625
	2114.9	68.628	8.2842
	2116.8	61.4708	7.84033
	2118.7	52.8933	7.27278
	2120.59	43.5274	6.59753
	2122.49	34.3676	5.86239
	2124.39	25.7318	5.07265
	2126.29	18.756	4.33082
	2128.19	13.7359	3.7062
	2130.09	9.93334	3.15172
	2131.99	7.43762	2.7272
	2133.88	5.60651	2.36781
	2135.78	4.20321	2.05017
	2137.68	2.90394	1.7041
	2139.58	2.07463	1.44036
	2141.48	1.18062	1.08657
	2143.38	0.83606	0.914363
	2145.28	0.431974	0.657247
	2147.17	0.0710784	0.266605
	2149.07	-0.444929	0.66703
	2150.97	-0.390365	0.624792
	2152.87	-0.356766	0.597299
	2154.77	-0.262426	0.512276
	2156.67	-0.239652	0.489543
	2158.57	-0.355399	0.596154
	2160.47	-0.414628	0.643916
	2162.36	-0.363244	0.602697
	2164.26	-0.154904	0.393578
	2166.16	0.182756	0.427499
	2168.06	0.214847	0.463516
	2169.96	0.103888	0.322317
	2171.86	0.159923	0.399904
	2173.76	0.405098	0.636473
	2175.65	0.281515	0.53058
	2177.55	0.547749	0.7401
	2179.45	0.829265	0.91064
	2181.35	0.882149	0.939228
	2183.25	0.765977	0.875201
	2185.15	0.553837	0.744203
	2187.05	0.224814	0.474145
	2188.94	0.0548698	0.234243
	2190.84	0.19182	0.437972
	2192.74	0.105492	0.324795
	2194.64	-0.0514089	0.226735
	2196.54	-0.181135	0.4256
	2198.44	-0.120001	0.346412
	2200.34	-0.0608854	0.24675
	2202.23	-0.0155324	0.124629
	2204.13	0.032094	0.179148
	2206.03	0.0910219	0.301698
	2207.93	0.0158171	0.125766
	2209.83	-0.303856	0.551232
	2211.73	-0.419028	0.647324
	2213.63	-0.24644	0.496428
	2215.53	-0.114621	0.338557
	2217.42	-0.077757	0.278849
	2219.32	-0.172387	0.415195
	2221.22	-0.132939	0.364608
	2223.12	-0.11718	0.342315
	2225.02	0.0378558	0.194566
	2226.92	0.107671	0.328133
	2228.82	0.260528	0.510419
	2230.71	0.416297	0.64521
	2232.61	0.495785	0.70412
	2234.51	0.350435	0.591975
	2236.41	0.176567	0.420199
	2238.31	0.332574	0.576693
	2240.21	0.510638	0.71459
	2242.11	0.439364	0.662846
	2244	0.19146	0.437562
	2245.9	0.0693514	0.263347
	2247.8	0.206404	0.454317
	2249.7	0.416086	0.645047
	2251.6	0.336989	0.580507
	2253.5	0.130703	0.361529
	2255.4	0.134209	0.366345
	2257.29	0.13586	0.368592
	2259.19	0.235049	0.484819
	2261.09	0.12859	0.358594
	2262.99	-0.13768	0.371053
	2264.89	-0.326924	0.571773
	2266.79	-0.00249762	0.0499762
	2268.69	0.136299	0.369187
	2270.59	0.0689104	0.262508
	2272.48	-0.26962	0.519249
	2274.38	-0.0450668	0.212289
	2276.28	0.0967862	0.311105
	2278.18	0.33925	0.582451
	2280.08	0.259769	0.509676
	2281.98	0.257489	0.507434
	2283.88	0.192778	0.439065
	2285.77	0.547018	0.739607
	2287.67	0.615916	0.784803
	2289.57	0.659194	0.811908
	2291.47	0.484922	0.696363
	2293.37	0.519377	0.720678
	2295.27	0.523835	0.723764
	2297.17	0.532121	0.729466
	2299.06	0.346198	0.588386
	2300.96	0.150004	0.387304
	2302.86	0.133407	0.36525
	2304.76	0.242075	0.492011
	2306.66	0.34057	0.583584
	2308.56	0.197616	0.44454
	2310.46	0.12528	0.353949
	2312.35	-0.0462139	0.214974
	2314.25	-0.116686	0.341594
	2316.15	-0.134021	0.366088
	2318.05	0.0799155	0.282693
	2319.95	0.298378	0.54624
	2321.85	0.146705	0.383021
	2323.75	0.0124007	0.111358
	2325.65	-0.0747711	0.273443
	2327.54	0.103723	0.32206
	2329.44	0.134225	0.366367
	2331.34	0.207468	0.455487
	2333.24	0.237812	0.48766
	2335.14	0.369887	0.608183
	2337.04	0.440791	0.663921
	2338.94	0.454414	0.674103
	2340.83	0.305804	0.552996
	2342.73	0.208255	0.456349
	2344.63	-0.0519198	0.227859
	2346.53	-0.0584615	0.241788
	2348.43	-0.000689815	0.0262643
	2350.33	0.443181	0.665718
	2352.23	0.365112	0.604245
	2354.12	0.3731	0.610819
	2356.02	0.337412	0.580872
	2357.92	0.50963	0.713884
	2359.82	0.495583	0.703977
	2361.72	0.312485	0.559003
	2363.62	0.198422	0.445446
	2365.52	0.0762061	0.276055
	2367.41	-0.00379859	0.0616327
	2369.31	0.0283902	0.168494
	2371.21	0.183706	0.42861
	2373.11	0.267285	0.516996
	2375.01	0.423704	0.650926
	2376.91	0.597556	0.773018
	2378.81	0.59622	0.772153
	2380.71	0.363083	0.602564
	2382.6	0.167271	0.408988
	2384.5	0.395732	0.629073
	2386.4	0.654458	0.808986
	2388.3	0.39766	0.630603
	2390.2	0.0863047	0.293777
	2392.1	-0.222539	0.47174
	2394	-0.048669	0.220611
	2395.89	0.0427382	0.206732
	2397.79	0.264748	0.514537
	2399.69	0.211076	0.45943
	2401.59	0.0869276	0.294835
	2403.49	0.0995523	0.315519
	2405.39	-0.0694837	0.263598
	2407.29	0.0695696	0.263761
	2409.18	0.169528	0.411738
	2411.08	0.147523	0.384087
	2412.98	-0.14065	0.375033
	2414.88	-0.14464	0.380315
	2416.78	-0.0103769	0.101867
	2418.68	-0.00287927	0.0536588
	2420.58	0.061531	0.248054
	2422.47	0.0248652	0.157687
	2424.37	-0.0254312	0.159472
