Generated file C:/Users/didvk/OneDrive - University of Florida/UF_Isaiah_06-16-2020-Tue/Analysis/Re0.1Mo0.9B2/Re0.1Mo0.9B2_HPXRD_run2_300_20220710 - Copy/mask&dat&fxye_4position/4_ReMoB2_15pGPa_295psi_P1_C4_D1w_041.fxye using DIOPTAS
# == pyFAI calibration ==
# Distance Sample to Detector: 0.2103851508954585 m
# PONI: 8.889e-02, 8.665e-02 m
# Rotations: 0.008634 -0.000915 0.000000 rad
# 
# == Fit2d calibration ==
# Distance Sample-beamCenter: 210.393 mm
# Center: x=493.236, y=515.685 pix
# Tilt: 0.497 deg  TiltPlanRot: -173.953 deg
# 
# Detector Detector	 Spline= None	 PixelSize= 1.720e-04, 1.720e-04 m
#    Detector has a mask: False 
#    Detector has a dark current: False 
#    detector has a flat field: False 
# 
# Wavelength: 4.133e-11 m
# Mask applied: None
# Dark current applied: None
# Flat field applied: None
# Polarization factor: None
# Normalization factor: None
BANK	1	1129	1129 CONS	282.731	1.89862 0.4133 0.0 FXYE
	282.731	0.655526	0.809645
	284.629	0.621256	0.788198
	286.528	0.619006	0.786769
	288.427	0.746884	0.864224
	290.325	0.282692	0.531687
	292.224	-0.0248261	0.157563
	294.122	0.164927	0.406112
	296.021	0.872806	0.934241
	297.92	1.35515	1.16411
	299.818	1.46619	1.21086
	301.717	0.813631	0.902015
	303.616	0.38421	0.619846
	305.514	0.365191	0.60431
	307.413	0.201894	0.449326
	309.311	0.949885	0.97462
	311.21	1.22127	1.10511
	313.109	1.69776	1.30298
	315.007	1.19885	1.09492
	316.906	1.00449	1.00224
	318.805	0.963378	0.981518
	320.703	1.54642	1.24355
	322.602	1.72963	1.31515
	324.5	2.10335	1.45029
	326.399	2.70665	1.64519
	328.298	3.24159	1.80044
	330.196	3.42289	1.8501
	332.095	3.95813	1.98951
	333.993	4.77801	2.18587
	335.892	6.86678	2.62045
	337.791	10.5589	3.24945
	339.689	15.2767	3.90854
	341.588	21.1664	4.60069
	343.487	26.9596	5.19226
	345.385	28.3519	5.32465
	347.284	26.0954	5.10836
	349.182	21.6119	4.64886
	351.081	15.6964	3.96187
	352.98	10.1357	3.18366
	354.878	6.72246	2.59277
	356.777	4.91087	2.21605
	358.676	4.09924	2.02466
	360.574	3.59702	1.89658
	362.473	2.7086	1.64578
	364.371	2.52006	1.58747
	366.27	2.09885	1.44874
	368.169	1.99881	1.41379
	370.067	1.77905	1.33381
	371.966	1.33765	1.15657
	373.864	0.801386	0.895202
	375.763	0.548504	0.740611
	377.662	0.216835	0.465655
	379.56	0.579511	0.761256
	381.459	0.635215	0.797004
	383.358	0.45132	0.671803
	385.256	0.0605164	0.246001
	387.155	0.361312	0.601092
	389.053	0.372009	0.609925
	390.952	0.302812	0.550283
	392.851	0.494454	0.703174
	394.749	0.443598	0.666031
	396.648	0.958526	0.979044
	398.547	0.709268	0.842181
	400.445	0.429713	0.655525
	402.344	0.268311	0.517988
	404.242	0.41466	0.643941
	406.141	0.538832	0.734052
	408.04	0.832044	0.912164
	409.938	1.04351	1.02152
	411.837	1.08216	1.04027
	413.735	1.04533	1.02241
	415.634	1.05242	1.02587
	417.533	0.935454	0.967189
	419.431	1.068	1.03344
	421.33	0.979638	0.989767
	423.229	0.716726	0.846597
	425.127	0.484252	0.695882
	427.026	0.465821	0.682511
	428.924	0.079866	0.282606
	430.823	-0.0217082	0.147337
	432.722	0.0120936	0.109971
	434.62	0.129679	0.360109
	436.519	0.17543	0.418844
	438.418	-0.021704	0.147323
	440.316	0.224542	0.473859
	442.215	0.0763159	0.276253
	444.113	0.122822	0.350459
	446.012	-0.175353	0.418752
	447.911	-0.0894678	0.299112
	449.809	0.405519	0.636804
	451.708	0.525194	0.724703
	453.606	0.59517	0.771472
	455.505	0.161166	0.401455
	457.404	0.754997	0.868905
	459.302	0.781797	0.884193
	461.201	1.18084	1.08666
	463.1	0.824983	0.908286
	464.998	0.69596	0.834242
	466.897	0.893578	0.945292
	468.795	0.687115	0.828924
	470.694	0.299433	0.547205
	472.593	0.807334	0.898518
	474.491	0.873869	0.93481
	476.39	0.992447	0.996217
	478.289	0.992013	0.995998
	480.187	0.57035	0.755215
	482.086	0.737036	0.858508
	483.984	0.535002	0.731438
	485.883	0.752617	0.867535
	487.782	1.0759	1.03725
	489.68	1.33628	1.15597
	491.579	1.40343	1.18466
	493.478	1.603	1.2661
	495.376	1.01466	1.0073
	497.275	0.537272	0.732989
	499.173	-0.0447804	0.211614
	501.072	-0.19753	0.444443
	502.971	0.476425	0.690236
	504.869	0.727166	0.85274
	506.768	0.77189	0.878573
	508.666	0.791269	0.889533
	510.565	1.01732	1.00862
	512.464	1.18533	1.08873
	514.362	1.10001	1.04881
	516.261	0.588118	0.766888
	518.16	0.227482	0.476951
	520.058	0.499935	0.707061
	521.957	0.833399	0.912907
	523.855	1.42505	1.19375
	525.754	1.6099	1.26882
	527.653	1.29155	1.13647
	529.551	1.19162	1.09161
	531.45	1.19538	1.09333
	533.349	1.61286	1.26998
	535.247	1.52623	1.2354
	537.146	1.22489	1.10675
	539.044	1.10051	1.04905
	540.943	0.629292	0.793279
	542.842	0.0894192	0.29903
	544.74	-0.162766	0.403443
	546.639	-0.211801	0.460219
	548.537	0.19614	0.442877
	550.436	0.350179	0.591759
	552.335	0.804036	0.89668
	554.233	1.27216	1.1279
	556.132	1.79295	1.33901
	558.031	1.24962	1.11787
	559.929	0.693376	0.832692
	561.828	0.929233	0.963967
	563.726	0.928225	0.963445
	565.625	1.07687	1.03772
	567.524	0.4665	0.683008
	569.422	0.742267	0.861549
	571.321	1.32773	1.15227
	573.22	1.6033	1.26621
	575.118	1.38657	1.17753
	577.017	1.03185	1.0158
	578.915	0.576937	0.759564
	580.814	0.523304	0.723398
	582.713	0.499209	0.706547
	584.611	0.772952	0.879177
	586.51	1.16294	1.0784
	588.408	1.52024	1.23298
	590.307	1.47675	1.21522
	592.206	1.07974	1.0391
	594.104	0.771844	0.878546
	596.003	1.19289	1.09219
	597.902	1.48895	1.22023
	599.8	1.43659	1.19858
	601.699	1.04454	1.02203
	603.597	0.321776	0.567253
	605.496	0.225498	0.474866
	607.395	0.0285955	0.169102
	609.293	-0.134346	0.366533
	611.192	-0.267393	0.517101
	613.091	-0.0585804	0.242034
	614.989	0.471084	0.686355
	616.888	1.54132	1.2415
	618.786	1.19003	1.09088
	620.685	0.722622	0.850072
	622.584	0.637803	0.798626
	624.482	0.444006	0.666337
	626.381	0.854447	0.924363
	628.279	1.28474	1.13346
	630.178	1.08654	1.04237
	632.077	0.72889	0.85375
	633.975	0.452046	0.672343
	635.874	0.436045	0.660337
	637.773	0.0443669	0.210635
	639.671	0.364504	0.603742
	641.57	0.887733	0.942196
	643.468	1.63005	1.27674
	645.367	3.16362	1.77866
	647.266	3.78224	1.9448
	649.164	5.74958	2.39783
	651.063	7.23847	2.69044
	652.962	8.34517	2.8888
	654.86	12.1647	3.4878
	656.759	12.9736	3.60189
	658.657	13.0489	3.61233
	660.556	11.1644	3.34131
	662.455	10.0178	3.16509
	664.353	6.76705	2.60135
	666.252	6.65114	2.57898
	668.15	6.53796	2.55694
	670.049	7.25947	2.69434
	671.948	9.75779	3.12375
	673.846	13.3125	3.64862
	675.745	19.7586	4.44506
	677.644	29.2041	5.40408
	679.542	41.3799	6.43272
	681.441	58.9077	7.67514
	683.339	77.2845	8.79116
	685.238	95.4903	9.77191
	687.137	109.741	10.4757
	689.035	113.938	10.6742
	690.934	114.475	10.6993
	692.833	108.555	10.419
	694.731	96.7164	9.83445
	696.63	83.2742	9.12547
	698.528	70.1442	8.37522
	700.427	54.4435	7.37858
	702.326	44.0815	6.63939
	704.224	33.7564	5.81003
	706.123	25.6628	5.06584
	708.021	18.8056	4.33654
	709.92	13.7555	3.70884
	711.819	10.2127	3.19573
	713.717	7.87426	2.80611
	715.616	5.8518	2.41905
	717.515	4.27672	2.06802
	719.413	2.77947	1.66717
	721.312	1.75525	1.32486
	723.21	1.10982	1.05348
	725.109	0.872735	0.934203
	727.008	0.492483	0.701771
	728.906	0.377787	0.614644
	730.805	0.250991	0.50099
	732.704	0.462023	0.679723
	734.602	0.70257	0.838194
	736.501	0.368001	0.606631
	738.399	0.289599	0.538144
	740.298	0.297069	0.545041
	742.197	1.00951	1.00474
	744.095	1.54278	1.24209
	745.994	1.4194	1.19139
	747.892	1.57158	1.25363
	749.791	1.53368	1.23842
	751.69	1.82597	1.35128
	753.588	2.11678	1.45492
	755.487	2.14635	1.46504
	757.386	2.39137	1.5464
	759.284	2.08662	1.44451
	761.183	1.76135	1.32716
	763.081	1.18329	1.08779
	764.98	0.731952	0.855542
	766.879	0.67324	0.820512
	768.777	0.813589	0.901992
	770.676	0.456322	0.675516
	772.575	0.567579	0.753378
	774.473	0.776322	0.881092
	776.372	1.10581	1.05157
	778.27	0.865079	0.930096
	780.169	0.0353499	0.188016
	782.068	-0.242232	0.492171
	783.966	0.159117	0.398894
	785.865	0.6052	0.777946
	787.764	0.649175	0.805714
	789.662	0.318825	0.564646
	791.561	0.551297	0.742494
	793.459	0.74092	0.860767
	795.358	0.714593	0.845336
	797.257	0.624126	0.790016
	799.155	0.806671	0.898149
	801.054	0.824224	0.907868
	802.952	0.652998	0.808083
	804.851	0.454207	0.673949
	806.75	0.464609	0.681622
	808.648	0.491258	0.700898
	810.547	0.512959	0.716211
	812.446	0.413632	0.643142
	814.344	0.579606	0.761318
	816.243	0.696502	0.834567
	818.141	0.715061	0.845613
	820.04	0.238022	0.487875
	821.939	0.0139179	0.117974
	823.837	-0.0950754	0.308343
	825.736	0.0857883	0.292896
	827.635	0.480993	0.693536
	829.533	0.475467	0.689541
	831.432	0.480463	0.693155
	833.33	0.510136	0.714238
	835.229	0.351197	0.592619
	837.128	-0.0737595	0.271587
	839.026	0.0398102	0.199525
	840.925	0.13568	0.368348
	842.823	0.802639	0.895901
	844.722	1.20757	1.0989
	846.621	1.01621	1.00807
	848.519	0.861564	0.928205
	850.418	0.816036	0.903347
	852.317	1.0153	1.00762
	854.215	0.99019	0.995083
	856.114	0.36159	0.601323
	858.012	-0.0689104	0.262508
	859.911	-0.114688	0.338656
	861.81	-0.0783874	0.279977
	863.708	-0.144327	0.379903
	865.607	-0.365343	0.604436
	867.506	-0.0239351	0.15471
	869.404	0.394104	0.627777
	871.303	0.576354	0.75918
	873.201	0.612708	0.782757
	875.1	0.566133	0.752418
	876.999	0.632805	0.795491
	878.897	0.563139	0.750426
	880.796	0.0317575	0.178206
	882.694	-0.135021	0.367453
	884.593	-0.27343	0.522906
	886.492	0.159589	0.399486
	888.39	0.216585	0.465387
	890.289	0.190877	0.436895
	892.188	0.387163	0.622224
	894.086	0.770828	0.877968
	895.985	1.94182	1.39349
	897.883	2.7279	1.65163
	899.782	4.0984	2.02445
	901.681	6.27837	2.50567
	903.579	9.4802	3.07899
	905.478	14.1924	3.76728
	907.377	21.3856	4.62446
	909.275	32.8809	5.73419
	911.174	51.0624	7.1458
	913.072	77.3969	8.79755
	914.971	114.436	10.6975
	916.87	162.823	12.7602
	918.768	227.122	15.0706
	920.667	306.396	17.5042
	922.565	404.063	20.1013
	924.464	516.373	22.7238
	926.363	641.804	25.3338
	928.261	784.75	28.0134
	930.16	934.821	30.5749
	932.059	1091.92	33.0442
	933.957	1190.32	34.5011
	935.856	1218.54	34.9075
	937.754	1151.65	33.936
	939.653	1041.81	32.2772
	941.552	903.643	30.0607
	943.45	775.922	27.8554
	945.349	660.322	25.6967
	947.248	564.728	23.764
	949.146	487.545	22.0804
	951.045	422.335	20.5508
	952.943	363.47	19.0649
	954.842	312.91	17.6893
	956.741	265.121	16.2825
	958.639	220.548	14.8509
	960.538	180.705	13.4426
	962.436	144.427	12.0178
	964.335	114.785	10.7138
	966.234	90.2772	9.50143
	968.132	70.6397	8.40474
	970.031	54.4538	7.37928
	971.93	41.7649	6.46257
	973.828	31.4572	5.60867
	975.727	23.2251	4.81924
	977.625	16.5126	4.06358
	979.524	11.5184	3.39388
	981.423	7.97551	2.82409
	983.321	5.19449	2.27914
	985.22	3.24748	1.80208
	987.119	1.35626	1.16459
	989.017	-0.0884105	0.297339
	990.916	-0.573727	0.757447
	992.814	-0.361384	0.601152
	994.713	0.47995	0.692784
	996.612	1.98124	1.40756
	998.51	3.29889	1.81628
	1000.41	4.20481	2.05056
	1002.31	4.77755	2.18576
	1004.21	5.09826	2.25793
	1006.1	4.8277	2.1972
	1008	3.72053	1.92887
	1009.9	2.32614	1.52517
	1011.8	1.05775	1.02847
	1013.7	0.850138	0.922029
	1015.6	1.45257	1.20523
	1017.5	2.7721	1.66496
	1019.4	5.53402	2.35245
	1021.29	11.2366	3.35211
	1023.19	15.3673	3.92012
	1025.09	22.5574	4.74947
	1026.99	29.1868	5.40248
	1028.89	36.2559	6.02129
	1030.79	44.6449	6.68168
	1032.69	50.639	7.1161
	1034.58	53.0993	7.28693
	1036.48	53.159	7.29102
	1038.38	51.0803	7.14705
	1040.28	44.9357	6.70341
	1042.18	40.1722	6.33816
	1044.08	35.663	5.97185
	1045.98	30.7525	5.5455
	1047.87	27.8668	5.2789
	1049.77	25.0949	5.00948
	1051.67	23.4593	4.84348
	1053.57	22.5632	4.75007
	1055.47	22.376	4.73033
	1057.37	23.3973	4.83707
	1059.27	25.0546	5.00546
	1061.16	27.9554	5.28729
	1063.06	31.4985	5.61235
	1064.96	35.4097	5.95061
	1066.86	41.9165	6.4743
	1068.76	48.5985	6.97126
	1070.66	58.572	7.65323
	1072.56	70.1757	8.37709
	1074.46	83.9606	9.163
	1076.35	102.579	10.1281
	1078.25	120.281	10.9673
	1080.15	140.612	11.858
	1082.05	157.616	12.5545
	1083.95	171.961	13.1134
	1085.85	185.955	13.6365
	1087.75	191.159	13.826
	1089.64	200.171	14.1482
	1091.54	194.165	13.9343
	1093.44	186.534	13.6577
	1095.34	161.215	12.6971
	1097.24	139.347	11.8045
	1099.14	105.835	10.2876
	1101.04	86.7485	9.31389
	1102.93	66.738	8.16933
	1104.83	52.8607	7.27054
	1106.73	42.4032	6.51177
	1108.63	33.1927	5.76131
	1110.53	26.6061	5.15811
	1112.43	20.6896	4.54859
	1114.33	15.8808	3.98507
	1116.22	12.6198	3.55244
	1118.12	9.72291	3.11816
	1120.02	7.82977	2.79817
	1121.92	6.457	2.54106
	1123.82	6.04107	2.45786
	1125.72	6.01088	2.45171
	1127.62	5.48211	2.34139
	1129.51	5.21161	2.2829
	1131.41	5.63756	2.37435
	1133.31	6.85939	2.61904
	1135.21	7.79581	2.7921
	1137.11	8.47891	2.91186
	1139.01	8.79345	2.96538
	1140.91	9.13418	3.02228
	1142.81	8.70641	2.95066
	1144.7	7.50998	2.74043
	1146.6	5.54101	2.35394
	1148.5	4.05831	2.01453
	1150.4	2.75583	1.66007
	1152.3	1.62659	1.27538
	1154.2	0.885413	0.940964
	1156.1	0.0707167	0.265926
	1157.99	0.000267633	0.0163595
	1159.89	-0.246927	0.496917
	1161.79	-0.35792	0.598264
	1163.69	-0.888044	0.942361
	1165.59	-1.01475	1.00735
	1167.49	-1.30919	1.1442
	1169.39	-1.60845	1.26825
	1171.28	-1.56173	1.24969
	1173.18	-1.47223	1.21336
	1175.08	-1.3959	1.18148
	1176.98	-1.32691	1.15192
	1178.88	-0.960131	0.979863
	1180.78	-0.554408	0.744586
	1182.68	-0.0832499	0.288531
	1184.57	0.450211	0.670977
	1186.47	0.725155	0.85156
	1188.37	0.943743	0.971464
	1190.27	1.21266	1.10121
	1192.17	1.57773	1.25608
	1194.07	1.52726	1.23583
	1195.97	1.56123	1.24949
	1197.87	1.87944	1.37093
	1199.76	2.51097	1.5846
	1201.66	3.36556	1.83455
	1203.56	4.9857	2.23287
	1205.46	6.71379	2.5911
	1207.36	9.00684	3.00114
	1209.26	11.5076	3.39229
	1211.16	14.471	3.80408
	1213.05	18.421	4.29197
	1214.95	22.9883	4.79462
	1216.85	28.6642	5.3539
	1218.75	34.4694	5.87107
	1220.65	40.8813	6.39385
	1222.55	47.0688	6.86067
	1224.45	52.9944	7.27973
	1226.34	58.4949	7.6482
	1228.24	63.4778	7.9673
	1230.14	68.1876	8.25758
	1232.04	72.0503	8.48824
	1233.94	73.3123	8.56226
	1235.84	71.564	8.45955
	1237.74	67.8733	8.23853
	1239.63	64.2891	8.01805
	1241.53	60.3456	7.76825
	1243.43	55.1763	7.42807
	1245.33	48.7574	6.98265
	1247.23	42.3254	6.5058
	1249.13	36.5236	6.04348
	1251.03	31.9901	5.65598
	1252.93	28.4473	5.3336
	1254.82	26.0744	5.10631
	1256.72	24.6695	4.96684
	1258.62	24.1954	4.91888
	1260.52	24.2002	4.91937
	1262.42	25.3966	5.0395
	1264.32	26.2307	5.12159
	1266.22	28.2197	5.31222
	1268.11	30.9712	5.56517
	1270.01	33.0289	5.74708
	1271.91	36.1062	6.00884
	1273.81	37.7448	6.14368
	1275.71	40.2516	6.34442
	1277.61	43.0209	6.55903
	1279.51	45.8895	6.77418
	1281.4	49.82	7.05833
	1283.3	52.7166	7.26062
	1285.2	56.4171	7.51113
	1287.1	62.1389	7.88282
	1289	67.3829	8.20871
	1290.9	75.5821	8.6938
	1292.8	83.058	9.11361
	1294.69	92.7511	9.63074
	1296.59	104.419	10.2186
	1298.49	116.268	10.7828
	1300.39	128.66	11.3428
	1302.29	141.094	11.8783
	1304.19	151.438	12.306
	1306.09	162.245	12.7375
	1307.99	166.164	12.8905
	1309.88	164.192	12.8138
	1311.78	153.074	12.3723
	1313.68	138.625	11.7739
	1315.58	117.902	10.8583
	1317.48	100.98	10.0489
	1319.38	83.6873	9.14807
	1321.28	70.4889	8.39577
	1323.17	59.4911	7.71305
	1325.07	48.8054	6.98609
	1326.97	40.557	6.36844
	1328.87	32.584	5.70824
	1330.77	25.9301	5.09216
	1332.67	20.8347	4.56451
	1334.57	16.2548	4.03173
	1336.46	12.9527	3.59898
	1338.36	9.61013	3.10002
	1340.26	6.31605	2.51317
	1342.16	4.33337	2.08168
	1344.06	2.80535	1.67492
	1345.96	2.2225	1.4908
	1347.86	1.43301	1.19709
	1349.75	0.777834	0.881949
	1351.65	0.66674	0.816542
	1353.55	0.327959	0.572677
	1355.45	0.525779	0.725106
	1357.35	0.288579	0.537195
	1359.25	0.487453	0.698178
	1361.15	1.03902	1.01932
	1363.05	2.93063	1.71191
	1364.94	4.85006	2.20228
	1366.84	7.27403	2.69704
	1368.74	9.12621	3.02096
	1370.64	11.4079	3.37756
	1372.54	13.6594	3.69587
	1374.44	15.6637	3.95774
	1376.34	17.2795	4.15686
	1378.23	17.9545	4.23728
	1380.13	18.4695	4.29761
	1382.03	18.4736	4.2981
	1383.93	18.3229	4.28053
	1385.83	17.7218	4.20973
	1387.73	16.5869	4.0727
	1389.63	14.474	3.80447
	1391.52	12.449	3.52831
	1393.42	10.756	3.27964
	1395.32	9.11699	3.01944
	1397.22	7.5555	2.74873
	1399.12	6.11257	2.47236
	1401.02	4.99732	2.23547
	1402.92	4.17962	2.04441
	1404.81	3.60323	1.89822
	1406.71	3.13028	1.76926
	1408.61	2.20018	1.4833
	1410.51	1.52936	1.23667
	1412.41	1.25566	1.12056
	1414.31	1.08761	1.04288
	1416.21	0.757963	0.870611
	1418.11	0.106377	0.326154
	1420	-0.266709	0.516439
	1421.9	-0.569063	0.754362
	1423.8	-0.67819	0.823523
	1425.7	-0.797765	0.893177
	1427.6	-0.735124	0.857394
	1429.5	-0.548377	0.740525
	1431.4	-0.291536	0.539941
	1433.29	-0.352347	0.593588
	1435.19	0.0722183	0.268735
	1437.09	0.0421105	0.205208
	1438.99	0.127131	0.356555
	1440.89	0.141477	0.376135
	1442.79	0.382312	0.618314
	1444.69	0.479145	0.692203
	1446.58	0.400305	0.632697
	1448.48	0.335	0.578792
	1450.38	0.204704	0.452442
	1452.28	0.204017	0.451682
	1454.18	0.256218	0.50618
	1456.08	0.310474	0.557202
	1457.98	0.138273	0.371851
	1459.87	0.164018	0.404991
	1461.77	0.186295	0.431619
	1463.67	0.416097	0.645056
	1465.57	0.335417	0.579152
	1467.47	0.224257	0.473558
	1469.37	0.0509774	0.225782
	1471.27	0.176808	0.420485
	1473.17	0.577115	0.759681
	1475.06	0.220735	0.469824
	1476.96	0.0886772	0.297787
	1478.86	-0.106071	0.325685
	1480.76	-0.196195	0.442939
	1482.66	-0.0307449	0.175342
	1484.56	0.182398	0.427081
	1486.46	0.278954	0.528161
	1488.35	0.202164	0.449627
	1490.25	-0.489462	0.699616
	1492.15	-0.442778	0.665415
	1494.05	-0.167305	0.409029
	1495.95	0.35295	0.594096
	1497.85	0.586892	0.766089
	1499.75	0.693307	0.832651
	1501.64	0.985766	0.992858
	1503.54	1.24836	1.1173
	1505.44	1.01437	1.00716
	1507.34	1.27472	1.12903
	1509.24	1.43606	1.19836
	1511.14	1.56757	1.25203
	1513.04	1.00853	1.00426
	1514.93	0.866068	0.930628
	1516.83	1.01979	1.00985
	1518.73	1.46215	1.2092
	1520.63	1.85649	1.36253
	1522.53	1.97969	1.40701
	1524.43	1.91168	1.38264
	1526.33	1.49789	1.22388
	1528.23	1.24886	1.11752
	1530.12	1.7353	1.31731
	1532.02	2.28764	1.5125
	1533.92	3.17036	1.78055
	1535.82	3.84299	1.96036
	1537.72	4.6993	2.16779
	1539.62	5.75249	2.39844
	1541.52	7.0052	2.64673
	1543.41	8.25329	2.87285
	1545.31	9.76878	3.12551
	1547.21	11.3172	3.3641
	1549.11	13.6613	3.69611
	1551.01	16.5312	4.06586
	1552.91	19.6731	4.43544
	1554.81	24.0184	4.90086
	1556.7	29.1958	5.40331
	1558.6	34.5651	5.87921
	1560.5	40.5323	6.36649
	1562.4	47.1277	6.86496
	1564.3	54.4902	7.38175
	1566.2	61.7093	7.85552
	1568.1	67.2636	8.20144
	1569.99	71.3348	8.44599
	1571.89	72.9708	8.54229
	1573.79	71.8542	8.47668
	1575.69	68.3127	8.26515
	1577.59	64.3833	8.02392
	1579.49	59.9151	7.74048
	1581.39	55.768	7.4678
	1583.29	51.1492	7.15186
	1585.18	46.3198	6.80587
	1587.08	41.9001	6.47303
	1588.98	37.767	6.14548
	1590.88	34.7641	5.89611
	1592.78	32.384	5.6907
	1594.68	30.6602	5.53717
	1596.58	28.7345	5.36046
	1598.47	27.3897	5.23352
	1600.37	26.158	5.11448
	1602.27	26.2688	5.12531
	1604.17	26.0602	5.10491
	1606.07	26.1774	5.11639
	1607.97	25.8974	5.08895
	1609.87	25.9756	5.09663
	1611.76	25.0416	5.00416
	1613.66	24.016	4.90061
	1615.56	22.3853	4.73131
	1617.46	21.4005	4.62606
	1619.36	19.8766	4.45831
	1621.26	18.6866	4.3228
	1623.16	16.9015	4.11114
	1625.05	14.9525	3.86684
	1626.95	12.8767	3.58841
	1628.85	11.2132	3.34861
	1630.75	9.62577	3.10254
	1632.65	8.63844	2.93912
	1634.55	7.89609	2.81
	1636.45	7.09329	2.66332
	1638.34	5.98867	2.44718
	1640.24	5.25718	2.29286
	1642.14	4.54984	2.13304
	1644.04	4.08016	2.01994
	1645.94	3.64017	1.90792
	1647.84	3.4462	1.85639
	1649.74	2.78153	1.66779
	1651.64	2.2189	1.4896
	1653.53	1.48187	1.21732
	1655.43	1.70481	1.30568
	1657.33	1.73658	1.31779
	1659.23	2.5481	1.59628
	1661.13	3.05149	1.74685
	1663.03	2.79328	1.67131
	1664.93	1.80353	1.34296
	1666.82	1.34546	1.15994
	1668.72	0.578581	0.760645
	1670.62	0.181266	0.425754
	1672.52	-0.136868	0.369957
	1674.42	-0.484328	0.695937
	1676.32	-0.162573	0.403204
	1678.22	-0.169936	0.412233
	1680.11	-0.283604	0.532544
	1682.01	-0.932023	0.965413
	1683.91	-1.1239	1.06014
	1685.81	-1.24441	1.11553
	1687.71	-0.970231	0.985003
	1689.61	-1.0582	1.02869
	1691.51	-1.07915	1.03882
	1693.4	-0.925333	0.961942
	1695.3	-0.850214	0.92207
	1697.2	-0.793656	0.890874
	1699.1	-0.795794	0.892073
	1701	-0.599979	0.774583
	1702.9	-0.502518	0.708885
	1704.8	-0.392888	0.626808
	1706.7	-0.0826023	0.287406
	1708.59	0.349564	0.591239
	1710.49	0.933698	0.96628
	1712.39	1.93155	1.3898
	1714.29	3.10874	1.76316
	1716.19	4.57938	2.13995
	1718.09	6.63387	2.57563
	1719.99	9.35214	3.05813
	1721.88	12.5221	3.53866
	1723.78	15.8655	3.98315
	1725.68	19.8705	4.45764
	1727.58	24.8317	4.98315
	1729.48	29.9672	5.47423
	1731.38	36.2706	6.0225
	1733.28	43.3781	6.5862
	1735.17	50.6926	7.11987
	1737.07	58.3177	7.6366
	1738.97	65.648	8.10235
	1740.87	74.0668	8.60621
	1742.77	81.9276	9.05139
	1744.67	90.5437	9.51544
	1746.57	99.0569	9.95273
	1748.46	107.337	10.3604
	1750.36	116.681	10.8019
	1752.26	124.287	11.1484
	1754.16	133.849	11.5693
	1756.06	140.578	11.8566
	1757.96	148.06	12.168
	1759.86	154.934	12.4473
	1761.76	163.35	12.7808
	1763.65	169.355	13.0136
	1765.55	171.294	13.0879
	1767.45	166.562	12.9059
	1769.35	157.228	12.5391
	1771.25	145.891	12.0785
	1773.15	131.641	11.4735
	1775.05	118.929	10.9055
	1776.94	107.341	10.3605
	1778.84	95.1768	9.75586
	1780.74	84.6824	9.2023
	1782.64	73.699	8.58481
	1784.54	64.7216	8.04498
	1786.44	56.2605	7.5007
	1788.34	48.9067	6.99333
	1790.23	41.6901	6.45679
	1792.13	35.3314	5.94402
	1794.03	29.9348	5.47127
	1795.93	25.1824	5.01821
	1797.83	21.0854	4.59189
	1799.73	17.5932	4.19443
	1801.63	15.1395	3.89095
	1803.52	13.1784	3.6302
	1805.42	11.2311	3.35129
	1807.32	9.43702	3.07197
	1809.22	7.95935	2.82123
	1811.12	6.67711	2.58401
	1813.02	6.07509	2.46477
	1814.92	5.94778	2.43881
	1816.82	6.28656	2.5073
	1818.71	6.80969	2.60954
	1820.61	7.21915	2.68685
	1822.51	7.99331	2.82724
	1824.41	9.71059	3.11618
	1826.31	11.672	3.41643
	1828.21	14.1164	3.75718
	1830.11	16.8199	4.1012
	1832	20.169	4.49099
	1833.9	24.0792	4.90706
	1835.8	28.7722	5.36397
	1837.7	34.5025	5.87389
	1839.6	40.7281	6.38186
	1841.5	47.3588	6.88177
	1843.4	54.5667	7.38693
	1845.29	61.8541	7.86474
	1847.19	69.8	8.35464
	1849.09	78.6047	8.86593
	1850.99	87.914	9.37625
	1852.89	96.0505	9.80054
	1854.79	103.677	10.1822
	1856.69	109.368	10.4579
	1858.58	112.32	10.5981
	1860.48	112.24	10.5943
	1862.38	109.711	10.4743
	1864.28	105.614	10.2769
	1866.18	100.054	10.0027
	1868.08	94.0001	9.69536
	1869.98	87.2442	9.34046
	1871.88	80.2993	8.96099
	1873.77	72.9457	8.54082
	1875.67	66.5863	8.16004
	1877.57	60.2766	7.7638
	1879.47	54.4951	7.38208
	1881.37	48.2794	6.94834
	1883.27	42.4644	6.51647
	1885.17	36.6027	6.05002
	1887.06	31.1043	5.57713
	1888.96	26.0547	5.10438
	1890.86	21.9578	4.68591
	1892.76	18.7928	4.33506
	1894.66	16.15	4.0187
	1896.56	14.4966	3.80745
	1898.46	13.2393	3.63858
	1900.35	12.1977	3.49252
	1902.25	11.6351	3.41102
	1904.15	11.6815	3.41782
	1906.05	11.9737	3.4603
	1907.95	12.9072	3.59266
	1909.85	13.6882	3.69975
	1911.75	14.4742	3.8045
	1913.64	14.6532	3.82795
	1915.54	15.4842	3.93499
	1917.44	16.477	4.05919
	1919.34	17.6941	4.20644
	1921.24	18.5907	4.3117
	1923.14	19.2233	4.38443
	1925.04	20.6236	4.54132
	1926.94	22.0961	4.70065
	1928.83	23.1891	4.81551
	1930.73	23.2271	4.81945
	1932.63	23.5746	4.85537
	1934.53	23.1287	4.80923
	1936.43	23.088	4.80499
	1938.33	21.3878	4.6247
	1940.23	20.2876	4.50417
	1942.12	17.8323	4.22283
	1944.02	17.4298	4.1749
	1945.92	15.5977	3.94939
	1947.82	14.9165	3.86218
	1949.72	14.045	3.74767
	1951.62	13.0467	3.61203
	1953.52	11.8449	3.44165
	1955.41	10.7512	3.2789
	1957.31	9.32426	3.05356
	1959.21	8.00014	2.82845
	1961.11	7.05799	2.65669
	1963.01	6.06589	2.4629
	1964.91	5.13024	2.265
	1966.81	3.6284	1.90483
	1968.7	2.91976	1.70873
	1970.6	1.86767	1.36663
	1972.5	1.45321	1.20549
	1974.4	0.989768	0.994871
	1976.3	0.780185	0.883281
	1978.2	0.416305	0.645217
	1980.1	0.289683	0.538222
	1982	0.00517822	0.0719599
	1983.89	0.204205	0.45189
	1985.79	0.560449	0.748631
	1987.69	0.78965	0.888622
	1989.59	0.848524	0.921154
	1991.49	1.22567	1.1071
	1993.39	1.90485	1.38016
	1995.29	2.31153	1.52037
	1997.18	3.18986	1.78602
	1999.08	3.92521	1.98122
	2000.98	4.52022	2.12608
	2002.88	5.07467	2.2527
	2004.78	5.60287	2.36704
	2006.68	6.22934	2.49587
	2008.58	6.9003	2.62684
	2010.47	7.54468	2.74676
	2012.37	8.1756	2.8593
	2014.27	8.70026	2.94962
	2016.17	9.34822	3.05749
	2018.07	10.1902	3.19221
	2019.97	10.6725	3.26688
	2021.87	11.203	3.34709
	2023.76	11.7529	3.42824
	2025.66	12.1029	3.47892
	2027.56	12.4299	3.52561
	2029.46	12.841	3.58343
	2031.36	13.8661	3.72373
	2033.26	14.4301	3.79869
	2035.16	15.0983	3.88565
	2037.06	15.3993	3.9242
	2038.95	16.4065	4.05049
	2040.85	17.2433	4.15251
	2042.75	17.8574	4.2258
	2044.65	18.8784	4.34493
	2046.55	19.7564	4.44482
	2048.45	20.9258	4.57447
	2050.35	22.0187	4.69241
	2052.24	22.8909	4.78444
	2054.14	24.0773	4.90686
	2056.04	25.4877	5.04853
	2057.94	27.0538	5.20132
	2059.84	28.4745	5.33615
	2061.74	29.7961	5.45858
	2063.64	30.6377	5.53514
	2065.53	30.781	5.54806
	2067.43	30.0501	5.4818
	2069.33	29.6437	5.4446
	2071.23	29.0436	5.38921
	2073.13	28.4744	5.33614
	2075.03	27.7905	5.27167
	2076.93	27.2481	5.21997
	2078.82	26.4733	5.14522
	2080.72	25.6374	5.06334
	2082.62	24.5963	4.95947
	2084.52	23.3582	4.83303
	2086.42	22.6171	4.75575
	2088.32	21.6388	4.65175
	2090.22	20.5154	4.5294
	2092.12	19.3991	4.40445
	2094.01	18.2265	4.26925
	2095.91	17.4438	4.17657
	2097.81	16.505	4.06263
	2099.71	15.8326	3.97902
	2101.61	15.1258	3.88919
	2103.51	15.1264	3.88927
	2105.41	15.1462	3.89181
	2107.3	15.7217	3.96506
	2109.2	16.4044	4.05023
	2111.1	17.7815	4.21681
	2113	19.0756	4.36756
	2114.9	20.8242	4.56335
	2116.8	22.1793	4.70949
	2118.7	23.6035	4.85834
	2120.59	24.6276	4.96262
	2122.49	25.7115	5.07065
	2124.39	26.3923	5.13734
	2126.29	26.5143	5.14921
	2128.19	26.1279	5.11154
	2130.09	24.6513	4.965
	2131.99	22.6555	4.75977
	2133.88	20.0244	4.47487
	2135.78	17.6003	4.19528
	2137.68	14.8671	3.85579
	2139.58	12.6393	3.55518
	2141.48	10.6306	3.26046
	2143.38	8.85188	2.97521
	2145.28	7.23598	2.68998
	2147.17	5.90498	2.43002
	2149.07	4.76222	2.18225
	2150.97	3.66	1.91311
	2152.87	2.75439	1.65964
	2154.77	1.95937	1.39977
	2156.67	1.18013	1.08634
	2158.57	0.607915	0.779689
	2160.47	0.352328	0.593572
	2162.36	0.193757	0.440178
	2164.26	0.0690713	0.262814
	2166.16	0.0029038	0.053887
	2168.06	0.0943596	0.30718
	2169.96	0.0191048	0.13822
	2171.86	0.106322	0.326071
	2173.76	0.165064	0.40628
	2175.65	0.249982	0.499982
	2177.55	0.440913	0.664013
	2179.45	0.480968	0.693518
	2181.35	0.138359	0.371967
	2183.25	-0.142978	0.378125
	2185.15	-0.202135	0.449594
	2187.05	-0.236711	0.48653
	2188.94	-0.438192	0.661961
	2190.84	-0.504113	0.710009
	2192.74	-0.387625	0.622595
	2194.64	-0.126827	0.356127
	2196.54	-0.1964	0.44317
	2198.44	-0.322884	0.568229
	2200.34	-0.277217	0.526514
	2202.23	-0.0707327	0.265956
	2204.13	0.0820614	0.286464
	2206.03	0.0958895	0.30966
	2207.93	0.192746	0.439028
	2209.83	-0.14219	0.377081
	2211.73	-0.00237698	0.0487542
	2213.63	0.097947	0.312965
	2215.53	0.126086	0.355086
	2217.42	-0.00174838	0.0418137
	2219.32	0.155592	0.394451
	2221.22	0.350164	0.591747
	2223.12	0.349587	0.591259
	2225.02	0.382872	0.618766
	2226.92	0.230919	0.48054
	2228.82	0.130122	0.360724
	2230.71	0.174317	0.417513
	2232.61	0.211711	0.46012
	2234.51	0.230707	0.48032
	2236.41	0.218435	0.46737
	2238.31	0.226386	0.4758
	2240.21	0.0885464	0.297568
	2242.11	0.0556067	0.235811
	2244	0.0972985	0.311927
	2245.9	0.0721842	0.268671
	2247.8	0.121813	0.349017
	2249.7	-0.0610468	0.247076
	2251.6	-0.0793052	0.281612
	2253.5	-0.193574	0.439971
	2255.4	-0.109906	0.331521
	2257.29	-0.134321	0.366498
	2259.19	-0.207003	0.454976
	2261.09	-0.144627	0.380299
	2262.99	-0.274126	0.52357
	2264.89	-0.218468	0.467406
	2266.79	0.00394247	0.0627891
	2268.69	0.205628	0.453463
	2270.59	0.187807	0.433368
	2272.48	0.0155377	0.12465
	2274.38	-0.10273	0.320515
	2276.28	-0.0382339	0.195535
	2278.18	0.138507	0.372166
	2280.08	0.328169	0.572861
	2281.98	0.213141	0.461672
	2283.88	0.0728461	0.2699
	2285.77	0.182539	0.427246
	2287.67	0.315964	0.562107
	2289.57	0.308487	0.555416
	2291.47	0.300779	0.548433
	2293.37	0.361083	0.600902
	2295.27	0.240839	0.490753
	2297.17	0.115658	0.340085
	2299.06	0.0404503	0.201123
	2300.96	0.13054	0.361303
	2302.86	0.187464	0.432971
	2304.76	0.173321	0.416318
	2306.66	0.104994	0.324027
	2308.56	0.102576	0.320274
	2310.46	0.256742	0.506697
	2312.35	0.111747	0.334286
	2314.25	-0.00923803	0.0961147
	2316.15	-0.214827	0.463494
	2318.05	-0.000776045	0.0278576
	2319.95	0.25794	0.507878
	2321.85	0.430757	0.656321
	2323.75	0.393148	0.627015
	2325.65	0.170362	0.41275
	2327.54	-0.0274139	0.165571
	2329.44	-0.0961409	0.310066
	2331.34	-0.214545	0.46319
	2333.24	-0.110886	0.332995
	2335.14	0.055144	0.234828
	2337.04	0.271239	0.520806
	2338.94	0.252929	0.502921
	2340.83	0.204117	0.451794
	2342.73	0.225435	0.4748
	2344.63	0.297059	0.545031
	2346.53	0.393028	0.62692
	2348.43	0.356018	0.596672
	2350.33	0.297626	0.545551
	2352.23	0.19447	0.440987
	2354.12	0.100893	0.317637
	2356.02	0.0127261	0.11281
	2357.92	0.069859	0.264308
	2359.82	0.144212	0.379752
	2361.72	0.227649	0.477126
	2363.62	0.205974	0.453844
	2365.52	0.223269	0.472513
	2367.41	0.20259	0.4501
	2369.31	0.259015	0.508935
	2371.21	0.138842	0.372615
	2373.11	0.110617	0.332592
	2375.01	0.190264	0.436192
	2376.91	0.299293	0.547077
	2378.81	0.484554	0.696099
	2380.71	0.372365	0.610217
	2382.6	0.176873	0.420563
	2384.5	-0.0624307	0.249861
	2386.4	0.32947	0.573994
	2388.3	0.59168	0.769207
	2390.2	0.672898	0.820304
	2392.1	0.470011	0.685573
	2394	0.505132	0.710726
	2395.89	0.472528	0.687407
	2397.79	0.40002	0.632471
	2399.69	0.368728	0.60723
	2401.59	0.20544	0.453255
	2403.49	-0.125199	0.353834
	2405.39	-0.380206	0.616608
	2407.29	-0.257696	0.507638
	2409.18	-0.0123268	0.111026
	2411.08	0.159391	0.399237
	2412.98	0.285725	0.534532
	2414.88	0.17506	0.418402
	2416.78	0.0911361	0.301888
	2418.68	-0.0912654	0.302102
	2420.58	-0.149137	0.386182
	2422.47	-0.148855	0.385818
	2424.37	0.135771	0.368471
