Generated file C:/Users/didvk/OneDrive - University of Florida/UF_Isaiah_06-16-2020-Tue/Analysis/Re0.1Mo0.9B2/Re0.1Mo0.9B2_HPXRD_run2_300_20220710 - Copy/mask&dat&fxye_4position/5_ReMoB2_20pGPa_325psi_P1_C4_D1w_047.fxye using DIOPTAS
# == pyFAI calibration ==
# Distance Sample to Detector: 0.2103851508954585 m
# PONI: 8.889e-02, 8.665e-02 m
# Rotations: 0.008634 -0.000915 0.000000 rad
# 
# == Fit2d calibration ==
# Distance Sample-beamCenter: 210.393 mm
# Center: x=493.236, y=515.685 pix
# Tilt: 0.497 deg  TiltPlanRot: -173.953 deg
# 
# Detector Detector	 Spline= None	 PixelSize= 1.720e-04, 1.720e-04 m
#    Detector has a mask: False 
#    Detector has a dark current: False 
#    detector has a flat field: False 
# 
# Wavelength: 4.133e-11 m
# Mask applied: None
# Dark current applied: None
# Flat field applied: None
# Polarization factor: None
# Normalization factor: None
BANK	1	1129	1129 CONS	282.731	1.89862 0.4133 0.0 FXYE
	282.731	0.408169	0.638881
	284.629	0.543929	0.737515
	286.528	0.686456	0.828527
	288.427	0.688266	0.829618
	290.325	0.742615	0.861751
	292.224	0.801374	0.895195
	294.122	0.943584	0.971382
	296.021	1.012	1.00598
	297.92	1.05649	1.02785
	299.818	0.69978	0.836528
	301.717	-0.140135	0.374346
	303.616	0.0761672	0.275984
	305.514	0.174796	0.418086
	307.413	0.734084	0.856787
	309.311	1.03297	1.01635
	311.21	1.14518	1.07013
	313.109	1.14675	1.07087
	315.007	0.911433	0.95469
	316.906	1.25351	1.1196
	318.805	1.11954	1.05808
	320.703	2.01408	1.41918
	322.602	2.20296	1.48424
	324.5	2.34081	1.52997
	326.399	2.4483	1.56471
	328.298	2.58706	1.60843
	330.196	2.80114	1.67366
	332.095	3.5764	1.89114
	333.993	4.05695	2.01419
	335.892	4.9443	2.22358
	337.791	6.70442	2.58929
	339.689	10.7386	3.27697
	341.588	16.9348	4.11519
	343.487	22.0342	4.69406
	345.385	23.2663	4.82351
	347.284	20.4864	4.52619
	349.182	15.7941	3.97417
	351.081	10.629	3.26022
	352.98	6.66581	2.58182
	354.878	3.83081	1.95724
	356.777	2.31833	1.52261
	358.676	2.03514	1.42658
	360.574	2.22763	1.49253
	362.473	2.77885	1.66699
	364.371	2.51811	1.58685
	366.27	2.29197	1.51393
	368.169	1.63008	1.27675
	370.067	1.09285	1.0454
	371.966	0.656222	0.810075
	373.864	0.010521	0.102572
	375.763	0.0533149	0.2309
	377.662	-0.0749024	0.273683
	379.56	0.642043	0.801276
	381.459	0.758924	0.871162
	383.358	1.26384	1.1242
	385.256	1.33146	1.15389
	387.155	1.34943	1.16165
	389.053	1.0859	1.04206
	390.952	1.07143	1.0351
	392.851	1.31534	1.14688
	394.749	1.99896	1.41385
	396.648	1.68543	1.29824
	398.547	1.1915	1.09156
	400.445	0.599724	0.774418
	402.344	0.807335	0.898518
	404.242	0.615691	0.78466
	406.141	0.786745	0.886987
	408.04	0.58529	0.765043
	409.938	1.15831	1.07625
	411.837	0.81151	0.900839
	413.735	0.693074	0.832511
	415.634	0.378834	0.615495
	417.533	0.59692	0.772606
	419.431	0.634653	0.796651
	421.33	0.853742	0.923982
	423.229	1.04204	1.0208
	425.127	0.981274	0.990593
	427.026	0.728075	0.853273
	428.924	0.60908	0.780436
	430.823	0.178719	0.422752
	432.722	0.0162259	0.127381
	434.62	-0.0873238	0.295506
	436.519	0.302203	0.54973
	438.418	0.4451	0.667158
	440.316	0.299829	0.547567
	442.215	-0.0160275	0.1266
	444.113	0.595781	0.771869
	446.012	0.955097	0.977291
	447.911	0.887654	0.942154
	449.809	0.311624	0.558233
	451.708	0.509169	0.713561
	453.606	0.555207	0.745122
	455.505	0.516729	0.718839
	457.404	-0.00624682	0.0790368
	459.302	-0.182313	0.426981
	461.201	-0.00948926	0.0974128
	463.1	0.0754175	0.274622
	464.998	0.414815	0.644062
	466.897	0.475269	0.689398
	468.795	0.437297	0.661285
	470.694	0.580552	0.76194
	472.593	0.773166	0.879298
	474.491	0.51089	0.714766
	476.39	0.684415	0.827294
	478.289	0.849964	0.921935
	480.187	1.06295	1.03099
	482.086	1.16615	1.07989
	483.984	1.46142	1.20889
	485.883	0.891569	0.944229
	487.782	0.658599	0.811541
	489.68	0.510598	0.714562
	491.579	0.475352	0.689457
	493.478	0.441248	0.664265
	495.376	0.0443907	0.210691
	497.275	0.268178	0.517859
	499.173	0.78085	0.883657
	501.072	1.5615	1.2496
	502.971	1.535	1.23895
	504.869	0.92129	0.959839
	506.768	0.558402	0.747263
	508.666	0.878874	0.937483
	510.565	1.21872	1.10396
	512.464	1.64923	1.28422
	514.362	1.26648	1.12538
	516.261	1.21276	1.10125
	518.16	1.04608	1.02278
	520.058	0.977885	0.988881
	521.957	0.972335	0.986071
	523.855	0.904959	0.951293
	525.754	0.798216	0.89343
	527.653	0.848021	0.920881
	529.551	1.11384	1.05538
	531.45	0.591247	0.768926
	533.349	0.584858	0.76476
	535.247	0.480607	0.693258
	537.146	0.696355	0.834479
	539.044	1.19643	1.09382
	540.943	1.54307	1.2422
	542.842	1.22707	1.10773
	544.74	0.603701	0.776982
	546.639	-0.18776	0.433313
	548.537	-0.168982	0.411075
	550.436	-0.179925	0.424176
	552.335	0.372243	0.610117
	554.233	0.795616	0.891973
	556.132	1.40015	1.18328
	558.031	1.99218	1.41145
	559.929	1.63708	1.27949
	561.828	1.77904	1.33381
	563.726	1.2122	1.101
	565.625	1.42327	1.19301
	567.524	1.21296	1.10135
	569.422	1.55737	1.24795
	571.321	1.25862	1.12188
	573.22	1.30806	1.1437
	575.118	1.23275	1.11029
	577.017	1.18885	1.09034
	578.915	1.00847	1.00423
	580.814	1.4661	1.21083
	582.713	1.71188	1.30839
	584.611	1.73576	1.31748
	586.51	1.23323	1.11051
	588.408	1.36742	1.16937
	590.307	1.11603	1.05642
	592.206	0.902053	0.949765
	594.104	0.750084	0.866074
	596.003	0.306965	0.554044
	597.902	0.627578	0.792198
	599.8	0.296094	0.544145
	601.699	0.373748	0.611349
	603.597	0.17582	0.419309
	605.496	0.0915046	0.302497
	607.395	0.0640883	0.253157
	609.293	-0.16784	0.409682
	611.192	-0.11099	0.333152
	613.091	0.238592	0.488459
	614.989	0.378545	0.61526
	616.888	0.521657	0.722258
	618.786	0.29762	0.545545
	620.685	0.796974	0.892734
	622.584	0.850056	0.921985
	624.482	0.862664	0.928797
	626.381	0.463227	0.680608
	628.279	0.629977	0.793711
	630.178	0.80307	0.896141
	632.077	0.73337	0.85637
	633.975	0.297964	0.545861
	635.874	0.136601	0.369595
	637.773	0.2891	0.53768
	639.671	0.73538	0.857543
	641.57	1.19863	1.09482
	643.468	1.11683	1.0568
	645.367	1.58869	1.26043
	647.266	2.41236	1.55318
	649.164	4.65392	2.15729
	651.063	8.32885	2.88598
	652.962	13.5805	3.68517
	654.86	17.8789	4.22834
	656.759	19.8258	4.45261
	658.657	18.3233	4.28058
	660.556	14.2642	3.77679
	662.455	10.0069	3.16337
	664.353	6.88145	2.62325
	666.252	5.06619	2.25082
	668.15	4.71278	2.17089
	670.049	4.9331	2.22106
	671.948	5.55572	2.35706
	673.846	6.70053	2.58854
	675.745	8.87135	2.97848
	677.644	13.7366	3.70629
	679.542	22.3096	4.72331
	681.441	36.736	6.06102
	683.339	56.9356	7.54556
	685.238	80.954	8.99745
	687.137	105.929	10.2922
	689.035	122.028	11.0466
	690.934	124.365	11.1519
	692.833	113.572	10.657
	694.731	94.4986	9.72104
	696.63	73.3499	8.56446
	698.528	54.0905	7.35463
	700.427	37.6534	6.13623
	702.326	26.8786	5.18446
	704.224	18.6134	4.31433
	706.123	13.0726	3.6156
	708.021	9.17249	3.02861
	709.92	7.01186	2.64799
	711.819	5.36919	2.31715
	713.717	4.13061	2.03239
	715.616	2.6239	1.61984
	717.515	2.05603	1.43389
	719.413	1.54296	1.24216
	721.312	1.24249	1.11467
	723.21	0.715083	0.845626
	725.109	0.320518	0.566143
	727.008	0.118758	0.344612
	728.906	0.63117	0.794462
	730.805	0.724166	0.850979
	732.704	0.999446	0.999723
	734.602	0.937462	0.968226
	736.501	0.97799	0.988934
	738.399	0.372939	0.610687
	740.298	0.128799	0.358886
	742.197	0.122075	0.349393
	744.095	0.4615	0.679338
	745.994	0.530121	0.728094
	747.892	0.101935	0.319273
	749.791	-0.0317618	0.178218
	751.69	0.00799344	0.0894061
	753.588	0.293869	0.542097
	755.487	0.787031	0.887148
	757.386	0.970779	0.985281
	759.284	0.954737	0.977106
	761.183	1.06075	1.02993
	763.081	1.16184	1.07789
	764.98	1.18196	1.08718
	766.879	1.27879	1.13084
	768.777	1.34844	1.16123
	770.676	1.40681	1.18609
	772.575	1.09324	1.04558
	774.473	0.908047	0.952915
	776.372	0.951694	0.975548
	778.27	0.951931	0.975669
	780.169	0.525186	0.724697
	782.068	0.153904	0.392307
	783.966	0.225011	0.474353
	785.865	0.294359	0.542548
	787.764	0.303527	0.550933
	789.662	0.30696	0.55404
	791.561	0.350202	0.591779
	793.459	0.732804	0.85604
	795.358	0.632927	0.795567
	797.257	0.612265	0.782474
	799.155	0.628855	0.793003
	801.054	0.457551	0.676425
	802.952	0.117462	0.342727
	804.851	-0.0978123	0.31275
	806.75	0.261703	0.51157
	808.648	0.032566	0.180461
	810.547	0.227313	0.476773
	812.446	0.378531	0.615249
	814.344	0.467128	0.683468
	816.243	0.106379	0.326159
	818.141	-0.0673066	0.259435
	820.04	-0.274241	0.52368
	821.939	-0.0788658	0.28083
	823.837	0.274797	0.524211
	825.736	0.551564	0.742673
	827.635	0.642227	0.801391
	829.533	0.718974	0.847923
	831.432	0.457061	0.676063
	833.33	0.504101	0.710001
	835.229	0.275052	0.524454
	837.128	0.0750606	0.273972
	839.026	0.0119572	0.109349
	840.925	0.0976077	0.312422
	842.823	0.313862	0.560234
	844.722	0.302148	0.54968
	846.621	0.631033	0.794376
	848.519	0.480847	0.693431
	850.418	0.718585	0.847694
	852.317	0.602957	0.776503
	854.215	0.51607	0.71838
	856.114	0.788768	0.888126
	858.012	0.464116	0.681261
	859.911	0.219319	0.468315
	861.81	0.0248705	0.157704
	863.708	0.192639	0.438907
	865.607	0.238492	0.488356
	867.506	0.34656	0.588694
	869.404	0.360133	0.600111
	871.303	0.202127	0.449585
	873.201	-0.0390209	0.197537
	875.1	0.0532783	0.230821
	876.999	-0.0529095	0.230021
	878.897	-0.346218	0.588403
	880.796	-0.566812	0.752869
	882.694	-0.283809	0.532737
	884.593	-0.0266569	0.163269
	886.492	0.123736	0.351762
	888.39	-0.175	0.41833
	890.289	-0.24585	0.495833
	892.188	-0.176484	0.4201
	894.086	-0.0883474	0.297233
	895.985	0.410624	0.6408
	897.883	0.375983	0.613174
	899.782	0.863663	0.929334
	901.681	1.50406	1.2264
	903.579	2.87189	1.69467
	905.478	4.50968	2.1236
	907.377	6.60989	2.57097
	909.275	8.94889	2.99147
	911.174	12.8675	3.58714
	913.072	19.2158	4.38358
	914.971	29.71	5.45069
	916.87	45.7998	6.76756
	918.768	70.476	8.395
	920.667	107.91	10.388
	922.565	167.085	12.9261
	924.464	255.868	15.9959
	926.363	402.853	20.0712
	928.261	653.286	25.5595
	930.16	1046.93	32.3564
	932.059	1525.2	39.0538
	933.957	2017.49	44.9165
	935.856	2270.67	47.6515
	937.754	2382.09	48.8066
	939.653	2278.71	47.7358
	941.552	2162.86	46.5066
	943.45	1961.2	44.2855
	945.349	1774.77	42.128
	947.248	1525.61	39.059
	949.146	1315.16	36.2651
	951.045	1115.84	33.4043
	952.943	964.295	31.0531
	954.842	808.07	28.4266
	956.741	646.306	25.4226
	958.639	493.164	22.2073
	960.538	360.859	18.9963
	962.436	262.355	16.1974
	964.335	191.171	13.8265
	966.234	141.606	11.8998
	968.132	105.387	10.2658
	970.031	78.1736	8.84158
	971.93	57.633	7.59164
	973.828	42.2077	6.49674
	975.727	31.3977	5.60336
	977.625	23.3327	4.83039
	979.524	17.2111	4.14863
	981.423	12.9866	3.60369
	983.321	9.71285	3.11654
	985.22	6.61546	2.57205
	987.119	3.82978	1.95698
	989.017	2.07777	1.44145
	990.916	0.785175	0.886101
	992.814	-0.0304057	0.174372
	994.713	-0.251532	0.50153
	996.612	0.122982	0.350688
	998.51	1.40459	1.18516
	1000.41	2.31308	1.52088
	1002.31	3.66117	1.91342
	1004.21	4.24894	2.0613
	1006.1	4.81612	2.19457
	1008	5.35581	2.31426
	1009.9	5.72761	2.39324
	1011.8	5.61865	2.37037
	1013.7	6.21566	2.49312
	1015.6	6.49107	2.54776
	1017.5	6.89892	2.62658
	1019.4	6.65361	2.57946
	1021.29	7.54124	2.74613
	1023.19	9.36292	3.05989
	1025.09	12.3821	3.51882
	1026.99	18.5816	4.31063
	1028.89	30.0359	5.4805
	1030.79	46.2033	6.7973
	1032.69	80.2412	8.95775
	1034.58	124.16	11.1427
	1036.48	184.281	13.575
	1038.38	215.994	14.6967
	1040.28	203.327	14.2593
	1042.18	168.04	12.963
	1044.08	136.637	11.6892
	1045.98	107.606	10.3733
	1047.87	82.5383	9.08506
	1049.77	73.6767	8.58351
	1051.67	64.1553	8.0097
	1053.57	58.8274	7.6699
	1055.47	57.8044	7.60292
	1057.37	54.6578	7.39309
	1059.27	53.643	7.32414
	1061.16	51.9481	7.20751
	1063.06	48.7525	6.9823
	1064.96	45.8233	6.76929
	1066.86	44.6692	6.6835
	1068.76	42.3397	6.50689
	1070.66	41.0322	6.40564
	1072.56	40.8626	6.39239
	1074.46	39.9636	6.32167
	1076.35	41.857	6.4697
	1078.25	42.6802	6.53301
	1080.15	44.4084	6.66396
	1082.05	46.5094	6.81978
	1083.95	48.4401	6.95989
	1085.85	49.3809	7.02716
	1087.75	50.0368	7.07367
	1089.64	50.5537	7.11011
	1091.54	48.9222	6.99444
	1093.44	46.7965	6.84079
	1095.34	42.9665	6.55488
	1097.24	39.3842	6.27568
	1099.14	34.1681	5.84535
	1101.04	29.9648	5.47401
	1102.93	24.9951	4.99951
	1104.83	20.5387	4.53196
	1106.73	17.4036	4.17176
	1108.63	14.0677	3.75069
	1110.53	11.6126	3.40773
	1112.43	9.78208	3.12763
	1114.33	8.33028	2.88622
	1116.22	6.66541	2.58174
	1118.12	4.89358	2.21214
	1120.02	3.59073	1.89492
	1121.92	2.79527	1.67191
	1123.82	2.16249	1.47054
	1125.72	1.73747	1.31813
	1127.62	1.40812	1.18664
	1129.51	1.32815	1.15245
	1131.41	1.2076	1.09891
	1133.31	1.45882	1.20782
	1135.21	1.84034	1.35659
	1137.11	2.59148	1.60981
	1139.01	3.41967	1.84924
	1140.91	4.18854	2.04659
	1142.81	5.19149	2.27848
	1144.7	5.32388	2.30735
	1146.6	4.36374	2.08896
	1148.5	3.33955	1.82744
	1150.4	2.13204	1.46015
	1152.3	1.06325	1.03114
	1154.2	0.512498	0.71589
	1156.1	0.0991127	0.314822
	1157.99	-0.278678	0.5279
	1159.89	-0.410884	0.641003
	1161.79	-0.289501	0.538053
	1163.69	0.0398866	0.199716
	1165.59	0.0195291	0.139747
	1167.49	-0.350585	0.592102
	1169.39	-0.620592	0.787777
	1171.28	-0.981364	0.990638
	1173.18	-0.765681	0.875032
	1175.08	-0.305194	0.552443
	1176.98	-0.139184	0.373074
	1178.88	-0.369347	0.607739
	1180.78	-0.389006	0.623704
	1182.68	-0.272447	0.521965
	1184.57	-0.147491	0.384046
	1186.47	-0.114716	0.338698
	1188.37	-0.207131	0.455116
	1190.27	-0.00396107	0.062937
	1192.17	0.110177	0.33193
	1194.07	0.478021	0.691391
	1195.97	0.984219	0.992078
	1197.87	1.47409	1.21412
	1199.76	1.70393	1.30535
	1201.66	1.89083	1.37507
	1203.56	2.03408	1.42621
	1205.46	2.82056	1.67945
	1207.36	3.54976	1.88408
	1209.26	4.18967	2.04687
	1211.16	4.51562	2.125
	1213.05	5.20515	2.28148
	1214.95	6.87498	2.62202
	1216.85	9.12652	3.02101
	1218.75	12.1366	3.48376
	1220.65	15.7296	3.96605
	1222.55	20.3118	4.50686
	1224.45	25.2423	5.02418
	1226.34	30.8598	5.55516
	1228.24	36.4741	6.03938
	1230.14	42.45	6.51537
	1232.04	48.0672	6.93305
	1233.94	53.13	7.28904
	1235.84	56.9569	7.54698
	1237.74	59.8473	7.7361
	1239.63	59.755	7.73014
	1241.53	58.8426	7.67089
	1243.43	56.139	7.4926
	1245.33	53.2731	7.29884
	1247.23	48.8884	6.99202
	1249.13	44.595	6.67795
	1251.03	40.5032	6.36421
	1252.93	37.4271	6.11777
	1254.82	35.0211	5.91786
	1256.72	32.8779	5.73393
	1258.62	31.7335	5.63325
	1260.52	30.569	5.52893
	1262.42	29.5529	5.43625
	1264.32	28.3948	5.32867
	1266.22	27.5037	5.24439
	1268.11	26.7702	5.17399
	1270.01	25.7716	5.07657
	1271.91	25.5674	5.05643
	1273.81	24.5801	4.95783
	1275.71	24.1426	4.91352
	1277.61	23.288	4.82576
	1279.51	23.0606	4.80214
	1281.4	22.5826	4.75211
	1283.3	22.1116	4.7023
	1285.2	21.8609	4.67557
	1287.1	21.6242	4.65019
	1289	21.5605	4.64333
	1290.9	21.4388	4.6302
	1292.8	21.0593	4.58904
	1294.69	20.8648	4.5678
	1296.59	20.8049	4.56124
	1298.49	21.1613	4.60014
	1300.39	21.4116	4.62727
	1302.29	21.4327	4.62955
	1304.19	21.4291	4.62916
	1306.09	21.1766	4.60181
	1307.99	21.0738	4.59062
	1309.88	20.9851	4.58095
	1311.78	20.3588	4.51208
	1313.68	19.8293	4.45301
	1315.58	19.1838	4.37993
	1317.48	18.2481	4.27178
	1319.38	16.9708	4.11956
	1321.28	15.5367	3.94166
	1323.17	14.5145	3.8098
	1325.07	13.406	3.66142
	1326.97	11.8243	3.43865
	1328.87	10.3111	3.21109
	1330.77	8.57458	2.92824
	1332.67	7.19937	2.68316
	1334.57	5.52308	2.35012
	1336.46	4.27601	2.06785
	1338.36	3.07204	1.75272
	1340.26	2.05648	1.43404
	1342.16	1.16923	1.08131
	1344.06	0.297135	0.545101
	1345.96	0.36178	0.601481
	1347.86	0.0777762	0.278884
	1349.75	0.302462	0.549965
	1351.65	0.0804332	0.283608
	1353.55	0.243797	0.493758
	1355.45	0.596938	0.772617
	1357.35	0.96145	0.980536
	1359.25	1.47421	1.21417
	1361.15	1.65219	1.28537
	1363.05	2.12861	1.45898
	1364.94	2.90519	1.70446
	1366.84	3.69694	1.92274
	1368.74	4.41499	2.10119
	1370.64	5.37611	2.31864
	1372.54	6.98657	2.64321
	1374.44	8.40397	2.89896
	1376.34	10.0005	3.16236
	1378.23	11.1451	3.33843
	1380.13	12.1465	3.48518
	1382.03	13.4135	3.66245
	1383.93	14.5083	3.80898
	1385.83	15.0907	3.88467
	1387.73	15.0706	3.88208
	1389.63	14.8491	3.85346
	1391.52	14.1442	3.76088
	1393.42	13.6212	3.69069
	1395.32	12.5967	3.54918
	1397.22	11.2636	3.35613
	1399.12	9.72615	3.11868
	1401.02	8.30676	2.88214
	1402.92	7.25815	2.6941
	1404.81	6.51583	2.55261
	1406.71	5.78298	2.40478
	1408.61	5.2415	2.28943
	1410.51	4.59561	2.14374
	1412.41	4.08651	2.02151
	1414.31	3.30149	1.817
	1416.21	2.98314	1.72718
	1418.11	2.4725	1.57242
	1420	2.16746	1.47223
	1421.9	1.70568	1.30602
	1423.8	1.60584	1.26722
	1425.7	1.03084	1.0153
	1427.6	0.676275	0.82236
	1429.5	0.684645	0.827433
	1431.4	1.27277	1.12817
	1433.29	1.32663	1.15179
	1435.19	1.37914	1.17437
	1437.09	1.24665	1.11653
	1438.99	0.712754	0.844248
	1440.89	0.19165	0.437779
	1442.79	-0.0516409	0.227246
	1444.69	0.12121	0.348153
	1446.58	0.359074	0.599228
	1448.48	0.225142	0.474491
	1450.38	0.145079	0.380892
	1452.28	0.122631	0.350187
	1454.18	-0.007185	0.0847644
	1456.08	-0.17485	0.418151
	1457.98	0.0501806	0.22401
	1459.87	-0.273747	0.523209
	1461.77	-0.0424607	0.20606
	1463.67	0.104721	0.323606
	1465.57	0.293944	0.542166
	1467.47	0.141902	0.376699
	1469.37	-0.430075	0.655801
	1471.27	-0.132942	0.364612
	1473.17	-0.0736122	0.271316
	1475.06	-0.388177	0.623038
	1476.96	-0.562633	0.750089
	1478.86	-0.484078	0.695757
	1480.76	-0.471742	0.686834
	1482.66	-0.156371	0.395438
	1484.56	-0.163273	0.40407
	1486.46	0.505059	0.710675
	1488.35	0.361455	0.601211
	1490.25	0.299642	0.547396
	1492.15	0.423681	0.650908
	1494.05	0.469031	0.684858
	1495.95	0.0404006	0.200999
	1497.85	-0.193594	0.439993
	1499.75	-0.15375	0.39211
	1501.64	-0.0293608	0.17135
	1503.54	0.328128	0.572825
	1505.44	0.153663	0.391998
	1507.34	0.382367	0.618358
	1509.24	0.873128	0.934413
	1511.14	1.182	1.0872
	1513.04	1.32128	1.14947
	1514.93	1.27782	1.13041
	1516.83	1.38291	1.17597
	1518.73	1.51222	1.22972
	1520.63	1.78942	1.33769
	1522.53	2.09157	1.44623
	1524.43	2.19243	1.48068
	1526.33	2.79572	1.67204
	1528.23	2.87759	1.69634
	1530.12	3.63948	1.90774
	1532.02	4.25352	2.06241
	1533.92	5.1835	2.27673
	1535.82	5.69894	2.38724
	1537.72	6.10781	2.4714
	1539.62	6.79937	2.60756
	1541.52	7.18161	2.67985
	1543.41	7.51816	2.74193
	1545.31	7.6538	2.76655
	1547.21	8.13998	2.85307
	1549.11	8.13714	2.85257
	1551.01	7.852	2.80214
	1552.91	7.32285	2.70608
	1554.81	7.26623	2.6956
	1556.7	7.35964	2.71287
	1558.6	7.46078	2.73144
	1560.5	7.60698	2.75808
	1562.4	7.79034	2.79112
	1564.3	8.3795	2.89474
	1566.2	9.24692	3.04087
	1568.1	10.3785	3.22156
	1569.99	11.531	3.39573
	1571.89	13.0708	3.61536
	1573.79	15.21	3.9
	1575.69	17.974	4.23958
	1577.59	21.8299	4.67225
	1579.49	26.4339	5.14139
	1581.39	32.4785	5.69899
	1583.29	40.1534	6.33667
	1585.18	48.539	6.96699
	1587.08	55.7597	7.46724
	1588.98	60.1933	7.75843
	1590.88	61.8775	7.86623
	1592.78	60.9133	7.8047
	1594.68	57.2787	7.56827
	1596.58	50.6891	7.11963
	1598.47	43.3337	6.58283
	1600.37	36.4979	6.04135
	1602.27	31.8103	5.64006
	1604.17	28.5483	5.34306
	1606.07	26.7944	5.17633
	1607.97	25.4911	5.04887
	1609.87	24.6957	4.96947
	1611.76	24.2751	4.92697
	1613.66	23.9995	4.89893
	1615.56	23.4511	4.84263
	1617.46	22.9369	4.78925
	1619.36	21.8767	4.67725
	1621.26	21.6708	4.65519
	1623.16	20.183	4.49255
	1625.05	19.405	4.40511
	1626.95	18.2061	4.26686
	1628.85	16.6935	4.08577
	1630.75	14.6862	3.83226
	1632.65	13.2293	3.63721
	1634.55	11.7765	3.43169
	1636.45	10.9229	3.30499
	1638.34	10.1748	3.1898
	1640.24	9.56764	3.09316
	1642.14	9.13222	3.02196
	1644.04	8.60388	2.93324
	1645.94	8.23043	2.86887
	1647.84	6.89596	2.62602
	1649.74	5.87306	2.42344
	1651.64	4.81336	2.19394
	1653.53	4.08338	2.02074
	1655.43	3.74692	1.9357
	1657.33	3.47036	1.86289
	1659.23	3.08925	1.75763
	1661.13	2.02421	1.42275
	1663.03	1.47727	1.21543
	1664.93	0.800585	0.894754
	1666.82	0.804691	0.897046
	1668.72	0.39949	0.632052
	1670.62	0.322745	0.568107
	1672.52	0.284358	0.533252
	1674.42	0.398644	0.631383
	1676.32	0.161848	0.402303
	1678.22	-0.0275029	0.16584
	1680.11	-0.000828651	0.0287863
	1682.01	0.0541609	0.232725
	1683.91	0.0607988	0.246574
	1685.81	-0.157872	0.397332
	1687.71	-0.155329	0.394118
	1689.61	-0.402919	0.634759
	1691.51	-0.523543	0.723563
	1693.4	-0.606772	0.778956
	1695.3	-0.521233	0.721964
	1697.2	-0.717327	0.846952
	1699.1	-0.853455	0.923826
	1701	-0.922981	0.960719
	1702.9	-0.839788	0.916399
	1704.8	-0.869143	0.932278
	1706.7	-0.610132	0.781109
	1708.59	-0.267097	0.516814
	1710.49	-0.126004	0.354971
	1712.39	-0.270262	0.519867
	1714.29	0.179228	0.423353
	1716.19	0.625623	0.790963
	1718.09	1.85255	1.36108
	1719.99	2.71807	1.64866
	1721.88	3.39301	1.84201
	1723.78	3.78787	1.94625
	1725.68	4.28544	2.07013
	1727.58	5.56711	2.35947
	1729.48	7.31877	2.70532
	1731.38	9.43521	3.07168
	1733.28	12.3967	3.5209
	1735.17	16.9661	4.119
	1737.07	24.9034	4.99034
	1738.97	37.2912	6.10665
	1740.87	59.9003	7.73953
	1742.77	97.526	9.87553
	1744.67	163.668	12.7933
	1746.57	250.87	15.8389
	1748.46	355.387	18.8517
	1750.36	423.625	20.5822
	1752.26	445.216	21.1001
	1754.16	402.245	20.056
	1756.06	333.436	18.2602
	1757.96	259.821	16.119
	1759.86	209.567	14.4764
	1761.76	181.872	13.486
	1763.65	168.204	12.9694
	1765.55	164.648	12.8315
	1767.45	164.098	12.8101
	1769.35	163.55	12.7887
	1771.25	155.037	12.4514
	1773.15	139.685	11.8189
	1775.05	118.023	10.8638
	1776.94	96.182	9.80724
	1778.84	77.9591	8.82944
	1780.74	63.9246	7.99529
	1782.64	53.5651	7.31882
	1784.54	46.0117	6.78319
	1786.44	39.3845	6.27571
	1788.34	33.912	5.8234
	1790.23	28.92	5.37773
	1792.13	25.1056	5.01055
	1794.03	21.8398	4.67331
	1795.93	18.5699	4.30928
	1797.83	15.5139	3.93877
	1799.73	12.628	3.55359
	1801.63	10.8904	3.30006
	1803.52	9.32617	3.05388
	1805.42	8.21545	2.86626
	1807.32	6.8518	2.61759
	1809.22	5.77532	2.40319
	1811.12	4.88775	2.21082
	1813.02	4.39794	2.09713
	1814.92	3.84766	1.96155
	1816.82	3.27213	1.8089
	1818.71	2.73832	1.65479
	1820.61	2.32945	1.52625
	1822.51	2.35479	1.53453
	1824.41	2.60725	1.6147
	1826.31	2.78118	1.66769
	1828.21	2.96161	1.72093
	1830.11	3.03453	1.74199
	1832	3.4585	1.8597
	1833.9	3.98872	1.99718
	1835.8	4.6098	2.14704
	1837.7	5.5259	2.35072
	1839.6	6.76871	2.60167
	1841.5	9.00982	3.00164
	1843.4	11.5253	3.39489
	1845.29	15.171	3.89499
	1847.19	19.7867	4.44823
	1849.09	25.7596	5.07539
	1850.99	34.3518	5.86105
	1852.89	45.8158	6.76874
	1854.79	61.4749	7.84059
	1856.69	82.0324	9.05717
	1858.58	107.794	10.3824
	1860.48	137.508	11.7264
	1862.38	165.021	12.846
	1864.28	184.982	13.6008
	1866.18	193.251	13.9015
	1868.08	189.211	13.7554
	1869.98	177.607	13.3269
	1871.88	161.911	12.7244
	1873.77	145.976	12.082
	1875.67	130.46	11.4219
	1877.57	114.37	10.6944
	1879.47	98.9534	9.94753
	1881.37	83.779	9.15309
	1883.27	70.257	8.38195
	1885.17	58.6019	7.65519
	1887.06	48.1096	6.93611
	1888.96	39.2425	6.26438
	1890.86	30.5366	5.526
	1892.76	23.5058	4.84828
	1894.66	17.5805	4.19291
	1896.56	13.2288	3.63714
	1898.46	9.83173	3.13556
	1900.35	7.18969	2.68136
	1902.25	4.95908	2.2269
	1904.15	3.32637	1.82383
	1906.05	2.53915	1.59347
	1907.95	1.82269	1.35007
	1909.85	1.40025	1.18332
	1911.75	1.26766	1.1259
	1913.64	2.42229	1.55637
	1915.54	3.64356	1.90881
	1917.44	5.1925	2.27871
	1919.34	7.21117	2.68536
	1921.24	10.4351	3.23034
	1923.14	14.2725	3.77789
	1925.04	18.8457	4.34116
	1926.94	23.6888	4.86711
	1928.83	29.5084	5.43216
	1930.73	37.5194	6.12531
	1932.63	47.7763	6.91204
	1934.53	56.794	7.53618
	1936.43	59.8889	7.73879
	1938.33	57.2996	7.56965
	1940.23	52.1231	7.21963
	1942.12	48.4021	6.95716
	1944.02	45.7187	6.76156
	1945.92	43.8384	6.62106
	1947.82	41.7301	6.45988
	1949.72	39.3451	6.27256
	1951.62	36.7365	6.06107
	1953.52	33.858	5.81876
	1955.41	31.0884	5.5757
	1957.31	28.6507	5.35264
	1959.21	26.2913	5.1275
	1961.11	24.3125	4.93077
	1963.01	22.1077	4.70189
	1964.91	18.7676	4.33216
	1966.81	16.5016	4.06222
	1968.7	13.2969	3.64649
	1970.6	10.7226	3.27454
	1972.5	8.56348	2.92634
	1974.4	7.17508	2.67863
	1976.3	6.64203	2.57721
	1978.2	6.59074	2.56724
	1980.1	5.98957	2.44736
	1982	6.22453	2.4949
	1983.89	6.09258	2.46831
	1985.79	6.90395	2.62754
	1987.69	6.9306	2.6326
	1989.59	7.23058	2.68897
	1991.49	7.36272	2.71343
	1993.39	7.78812	2.79072
	1995.29	8.81713	2.96937
	1997.18	9.14634	3.02429
	1999.08	9.99855	3.16205
	2000.98	10.2042	3.1944
	2002.88	11.031	3.3213
	2004.78	11.1469	3.33869
	2006.68	11.2365	3.35208
	2008.58	11.1518	3.33944
	2010.47	11.5409	3.3972
	2012.37	11.3505	3.36905
	2014.27	12.0869	3.47663
	2016.17	12.6366	3.5548
	2018.07	13.4309	3.66482
	2019.97	13.5003	3.67428
	2021.87	13.7442	3.70732
	2023.76	14.3527	3.7885
	2025.66	14.4905	3.80663
	2027.56	15.3277	3.91506
	2029.46	15.8281	3.97845
	2031.36	16.8623	4.10637
	2033.26	17.226	4.15043
	2035.16	18.253	4.27235
	2037.06	19.0228	4.36151
	2038.95	20.4447	4.52158
	2040.85	21.9005	4.6798
	2042.75	23.0487	4.80091
	2044.65	24.6709	4.96698
	2046.55	26.0283	5.10179
	2048.45	27.7708	5.2698
	2050.35	28.8842	5.3744
	2052.24	30.2772	5.50248
	2054.14	31.3267	5.59703
	2056.04	33.4515	5.78373
	2057.94	34.3821	5.86363
	2059.84	35.8671	5.98891
	2061.74	37.776	6.14622
	2063.64	39.9028	6.31686
	2065.53	42.2004	6.49618
	2067.43	44.2754	6.65398
	2069.33	46.942	6.85142
	2071.23	48.6431	6.97446
	2073.13	49.2908	7.02074
	2075.03	49.0813	7.0058
	2076.93	47.7141	6.90754
	2078.82	45.4822	6.74405
	2080.72	43.0556	6.56168
	2082.62	40.083	6.33112
	2084.52	37.7621	6.14509
	2086.42	34.3765	5.86315
	2088.32	32.2064	5.67507
	2090.22	28.4215	5.33118
	2092.12	25.5051	5.05026
	2094.01	22.3176	4.72415
	2095.91	19.7423	4.44324
	2097.81	17.3534	4.16574
	2099.71	15.4352	3.92877
	2101.61	13.3883	3.659
	2103.51	11.6102	3.40737
	2105.41	9.90497	3.14722
	2107.3	8.28886	2.87904
	2109.2	6.77742	2.60335
	2111.1	5.70922	2.3894
	2113	4.56032	2.13549
	2114.9	3.8719	1.96772
	2116.8	3.27884	1.81076
	2118.7	2.94886	1.71722
	2120.59	2.76001	1.66133
	2122.49	2.74808	1.65773
	2124.39	2.64988	1.62784
	2126.29	2.94492	1.71608
	2128.19	3.96018	1.99002
	2130.09	5.24199	2.28954
	2131.99	6.59015	2.56713
	2133.88	7.51572	2.74148
	2135.78	8.43004	2.90345
	2137.68	8.66545	2.94371
	2139.58	8.7719	2.96174
	2141.48	8.433	2.90396
	2143.38	8.49304	2.91428
	2145.28	8.39246	2.89697
	2147.17	8.66823	2.94419
	2149.07	8.87131	2.97847
	2150.97	9.59963	3.09833
	2152.87	10.768	3.28147
	2154.77	12.5257	3.53916
	2156.67	13.5057	3.675
	2158.57	12.6571	3.55769
	2160.47	10.4301	3.22956
	2162.36	7.62235	2.76086
	2164.26	5.22819	2.28652
	2166.16	3.06039	1.7494
	2168.06	1.81615	1.34764
	2169.96	1.04892	1.02417
	2171.86	0.484655	0.696171
	2173.76	0.168782	0.410831
	2175.65	0.026887	0.163972
	2177.55	0.205683	0.453523
	2179.45	0.218137	0.467051
	2181.35	-0.181946	0.426552
	2183.25	-0.565053	0.7517
	2185.15	-0.635818	0.797382
	2187.05	-0.51461	0.717363
	2188.94	-0.544552	0.737938
	2190.84	-0.571476	0.755961
	2192.74	-0.485772	0.696973
	2194.64	-0.333494	0.577489
	2196.54	-0.0868614	0.294723
	2198.44	-0.0663072	0.257502
	2200.34	0.0202031	0.142138
	2202.23	0.0343907	0.185447
	2204.13	0.279624	0.528795
	2206.03	0.212785	0.461286
	2207.93	0.212234	0.460688
	2209.83	0.0447403	0.211519
	2211.73	0.118983	0.344939
	2213.63	0.138012	0.3715
	2215.53	0.312657	0.559157
	2217.42	0.186089	0.431381
	2219.32	-0.00424216	0.0651318
	2221.22	0.00648101	0.0805047
	2223.12	0.0861616	0.293533
	2225.02	0.190834	0.436846
	2226.92	0.187717	0.433263
	2228.82	0.318284	0.564167
	2230.71	0.454788	0.674379
	2232.61	0.427956	0.654184
	2234.51	0.389942	0.624453
	2236.41	0.283001	0.531978
	2238.31	0.175833	0.419324
	2240.21	0.0783611	0.27993
	2242.11	-0.0497319	0.223006
	2244	-0.0718149	0.267983
	2245.9	-0.0588952	0.242683
	2247.8	0.201307	0.448673
	2249.7	0.366804	0.605644
	2251.6	0.0309558	0.175943
	2253.5	-0.161055	0.401317
	2255.4	-0.268941	0.518595
	2257.29	-0.198301	0.445309
	2259.19	0.0666996	0.258263
	2261.09	0.387934	0.622843
	2262.99	0.656951	0.810525
	2264.89	0.450982	0.671552
	2266.79	0.252993	0.502984
	2268.69	0.198924	0.446009
	2270.59	0.236909	0.486733
	2272.48	0.208977	0.45714
	2274.38	0.214124	0.462735
	2276.28	0.200934	0.448257
	2278.18	0.413935	0.643378
	2280.08	0.372006	0.609923
	2281.98	0.243169	0.493121
	2283.88	0.0602475	0.245454
	2285.77	0.0324693	0.180192
	2287.67	0.119293	0.345388
	2289.57	0.187833	0.433398
	2291.47	0.217014	0.465847
	2293.37	0.316373	0.56247
	2295.27	0.297828	0.545736
	2297.17	0.413067	0.642703
	2299.06	0.462732	0.680244
	2300.96	0.65561	0.809697
	2302.86	0.445154	0.667198
	2304.76	0.41195	0.641834
	2306.66	0.251097	0.501095
	2308.56	0.270734	0.520321
	2310.46	-0.1156	0.340001
	2312.35	-0.076088	0.27584
	2314.25	0.0133314	0.115461
	2316.15	0.138961	0.372775
	2318.05	0.0354148	0.188188
	2319.95	-0.111586	0.334045
	2321.85	0.226661	0.476089
	2323.75	0.375321	0.612635
	2325.65	0.249733	0.499733
	2327.54	-0.0331391	0.182042
	2329.44	-0.0205414	0.143323
	2331.34	0.00866041	0.0930613
	2333.24	-0.0074321	0.0862096
	2335.14	0.1225	0.349999
	2337.04	0.380872	0.617149
	2338.94	0.443921	0.666274
	2340.83	0.218681	0.467634
	2342.73	0.0508802	0.225566
	2344.63	0.030862	0.175676
	2346.53	0.14509	0.380907
	2348.43	0.0562362	0.237142
	2350.33	-0.0179887	0.134122
	2352.23	0.0199546	0.141261
	2354.12	0.187143	0.432601
	2356.02	0.135357	0.367909
	2357.92	0.207733	0.455777
	2359.82	0.477708	0.691164
	2361.72	0.639031	0.799394
	2363.62	0.436957	0.661027
	2365.52	0.101508	0.318604
	2367.41	-0.173445	0.416468
	2369.31	-0.0725402	0.269333
	2371.21	0.0552868	0.235131
	2373.11	0.318947	0.564754
	2375.01	0.502448	0.708835
	2376.91	0.609974	0.781008
	2378.81	0.420992	0.648839
	2380.71	0.388805	0.623542
	2382.6	0.321477	0.56699
	2384.5	0.212866	0.461374
	2386.4	0.16458	0.405685
	2388.3	0.0615052	0.248002
	2390.2	-0.0299873	0.173168
	2392.1	-0.142324	0.377259
	2394	-0.0117588	0.108438
	2395.89	-0.0943227	0.30712
	2397.79	-0.146521	0.38278
	2399.69	-0.0610648	0.247113
	2401.59	0.131177	0.362184
	2403.49	0.366516	0.605406
	2405.39	0.269287	0.518929
	2407.29	0.160392	0.400489
	2409.18	-0.165684	0.407043
	2411.08	-0.241541	0.491468
	2412.98	-0.304205	0.551548
	2414.88	0.00563709	0.0750806
	2416.78	0.230182	0.479773
	2418.68	0.275586	0.524963
	2420.58	-0.11333	0.336645
	2422.47	-0.193776	0.4402
	2424.37	0.088074	0.296773
