Generated file C:/Users/didvk/OneDrive - University of Florida/UF_Isaiah_06-16-2020-Tue/Analysis/Re0.1Mo0.9B2/Re0.1Mo0.9B2_HPXRD_run2_300_20220710 - Copy/mask&dat&fxye_4position/6_ReMoB2_28pGPa_355psi_P1_C4_D1w_053.fxye using DIOPTAS
# == pyFAI calibration ==
# Distance Sample to Detector: 0.2103851508954585 m
# PONI: 8.889e-02, 8.665e-02 m
# Rotations: 0.008634 -0.000915 0.000000 rad
# 
# == Fit2d calibration ==
# Distance Sample-beamCenter: 210.393 mm
# Center: x=493.236, y=515.685 pix
# Tilt: 0.497 deg  TiltPlanRot: -173.953 deg
# 
# Detector Detector	 Spline= None	 PixelSize= 1.720e-04, 1.720e-04 m
#    Detector has a mask: False 
#    Detector has a dark current: False 
#    detector has a flat field: False 
# 
# Wavelength: 4.133e-11 m
# Mask applied: None
# Dark current applied: None
# Flat field applied: None
# Polarization factor: None
# Normalization factor: None
BANK	1	1129	1129 CONS	282.731	1.89862 0.4133 0.0 FXYE
	282.731	0.358805	0.599003
	284.629	0.529405	0.727602
	286.528	0.786281	0.886725
	288.427	0.717892	0.847285
	290.325	0.81651	0.90361
	292.224	0.967651	0.983693
	294.122	1.44842	1.20351
	296.021	1.27676	1.12994
	297.92	1.09257	1.04526
	299.818	0.703839	0.838951
	301.717	0.0388287	0.19705
	303.616	0.154862	0.393525
	305.514	0.415772	0.644804
	307.413	1.01832	1.00912
	309.311	1.17908	1.08586
	311.21	1.3898	1.1789
	313.109	1.4154	1.1897
	315.007	1.02389	1.01188
	316.906	1.22821	1.10825
	318.805	0.799421	0.894103
	320.703	1.34936	1.16162
	322.602	1.72842	1.31469
	324.5	1.60475	1.26679
	326.399	1.39072	1.17929
	328.298	1.57701	1.25579
	330.196	2.05548	1.43369
	332.095	2.66933	1.63381
	333.993	3.09843	1.76023
	335.892	3.83798	1.95908
	337.791	5.19334	2.27889
	339.689	8.58049	2.92925
	341.588	13.6507	3.69468
	343.487	18.5782	4.31024
	345.385	28.7643	5.36324
	347.284	32.7237	5.72046
	349.182	27.7717	5.26988
	351.081	15.0915	3.88478
	352.98	11.4159	3.37874
	354.878	11.6674	3.41575
	356.777	11.8157	3.43739
	358.676	10.0999	3.17803
	360.574	2.14761	1.46547
	362.473	1.43048	1.19603
	364.371	0.923072	0.960767
	366.27	0.656664	0.810348
	368.169	0.319073	0.564866
	370.067	0.437282	0.661273
	371.966	0.710847	0.843118
	373.864	0.659715	0.812229
	375.763	0.602072	0.775933
	377.662	0.57069	0.75544
	379.56	0.717662	0.847149
	381.459	0.52882	0.7272
	383.358	0.683816	0.826932
	385.256	0.621408	0.788294
	387.155	0.867703	0.931506
	389.053	1.20091	1.09586
	390.952	1.3011	1.14066
	392.851	1.60057	1.26514
	394.749	1.17267	1.0829
	396.648	0.785686	0.886389
	398.547	0.395696	0.629044
	400.445	0.61559	0.784596
	402.344	0.670725	0.818978
	404.242	0.962473	0.981057
	406.141	1.29837	1.13946
	408.04	1.33128	1.15381
	409.938	1.45271	1.20529
	411.837	1.2648	1.12463
	413.735	0.84488	0.919174
	415.634	0.364499	0.603738
	417.533	0.494292	0.703059
	419.431	0.455575	0.674963
	421.33	0.547863	0.740178
	423.229	0.273602	0.523069
	425.127	0.649461	0.805891
	427.026	0.947878	0.97359
	428.924	0.546971	0.739575
	430.823	0.672599	0.820121
	432.722	0.304938	0.552212
	434.62	0.639281	0.799551
	436.519	0.742447	0.861654
	438.418	0.975959	0.987906
	440.316	0.857327	0.925919
	442.215	0.556516	0.746
	444.113	0.968844	0.984299
	446.012	0.705353	0.839853
	447.911	0.288757	0.537361
	449.809	0.0288015	0.16971
	451.708	0.220314	0.469376
	453.606	0.509201	0.713583
	455.505	0.328192	0.57288
	457.404	0.235822	0.485615
	459.302	-0.0275506	0.165984
	461.201	-0.182387	0.427068
	463.1	-0.0819199	0.286217
	464.998	-0.154176	0.392653
	466.897	0.151122	0.388744
	468.795	0.337329	0.580801
	470.694	0.398663	0.631398
	472.593	0.79792	0.893264
	474.491	1.16555	1.0796
	476.39	1.17408	1.08355
	478.289	1.12312	1.05977
	480.187	1.3846	1.17669
	482.086	1.55163	1.24565
	483.984	1.64968	1.2844
	485.883	1.26177	1.12328
	487.782	0.845861	0.919707
	489.68	0.923366	0.960919
	491.579	1.07911	1.0388
	493.478	1.06908	1.03396
	495.376	0.417082	0.645819
	497.275	0.256301	0.506261
	499.173	0.123843	0.351914
	501.072	0.258326	0.508258
	502.971	0.0190541	0.138037
	504.869	0.595396	0.771619
	506.768	0.703991	0.839042
	508.666	1.22931	1.10874
	510.565	1.08833	1.04323
	512.464	1.02292	1.0114
	514.362	1.2136	1.10163
	516.261	0.851761	0.922909
	518.16	0.383228	0.619054
	520.058	-0.203093	0.450659
	521.957	0.0496677	0.222862
	523.855	0.574881	0.758209
	525.754	0.847759	0.920738
	527.653	0.836069	0.914368
	529.551	0.361964	0.601635
	531.45	0.362236	0.60186
	533.349	0.729373	0.854033
	535.247	1.15712	1.0757
	537.146	1.22816	1.10822
	539.044	0.54502	0.738255
	540.943	0.105826	0.32531
	542.842	0.083518	0.288995
	544.74	0.486553	0.697533
	546.639	0.391245	0.625496
	548.537	0.335695	0.579392
	550.436	0.651308	0.807037
	552.335	0.940382	0.969733
	554.233	1.17115	1.0822
	556.132	0.818039	0.904455
	558.031	0.71387	0.844908
	559.929	0.415311	0.644446
	561.828	0.269341	0.518981
	563.726	-0.0657913	0.256498
	565.625	0.027395	0.165514
	567.524	0.580495	0.761902
	569.422	0.708556	0.841758
	571.321	0.765593	0.874981
	573.22	0.301417	0.549015
	575.118	0.545933	0.738873
	577.017	0.371701	0.609673
	578.915	0.395894	0.629201
	580.814	0.419089	0.64737
	582.713	0.737606	0.85884
	584.611	0.954771	0.977124
	586.51	1.09341	1.04566
	588.408	1.00004	1.00002
	590.307	1.14938	1.07209
	592.206	1.01713	1.00853
	594.104	1.12397	1.06018
	596.003	1.2622	1.12348
	597.902	0.892979	0.944976
	599.8	0.411944	0.641829
	601.699	0.0887722	0.297947
	603.597	-0.196827	0.443652
	605.496	-0.212989	0.461508
	607.395	-0.0679435	0.26066
	609.293	0.0458632	0.214157
	611.192	0.20226	0.449733
	613.091	0.622317	0.788871
	614.989	0.957965	0.978757
	616.888	0.841861	0.91753
	618.786	0.440733	0.663877
	620.685	0.0523418	0.228783
	622.584	0.341548	0.584421
	624.482	0.545549	0.738613
	626.381	1.09069	1.04436
	628.279	0.818696	0.904818
	630.178	0.549038	0.740971
	632.077	0.200153	0.447385
	633.975	0.259494	0.509406
	635.874	0.323022	0.568351
	637.773	0.20042	0.447683
	639.671	0.467691	0.683879
	641.57	0.697602	0.835226
	643.468	1.45664	1.20691
	645.367	1.82125	1.34954
	647.266	2.16118	1.47009
	649.164	3.36412	1.83415
	651.063	6.04828	2.45932
	652.962	10.4228	3.22844
	654.86	16.3036	4.03777
	656.759	23.298	4.8268
	658.657	30.0766	5.48422
	660.556	33.0226	5.74653
	662.455	30.5864	5.53049
	664.353	25.4225	5.04208
	666.252	19.4008	4.40464
	668.15	15.1376	3.89071
	670.049	11.7483	3.42758
	671.948	9.93646	3.15222
	673.846	9.10154	3.01688
	675.745	9.96357	3.15651
	677.644	13.1434	3.62539
	679.542	19.1461	4.37563
	681.441	29.9973	5.47698
	683.339	47.3424	6.88058
	685.238	70.9302	8.42201
	687.137	101.959	10.0975
	689.035	125.756	11.2141
	690.934	134.903	11.6148
	692.833	125.427	11.1994
	694.731	105.561	10.2743
	696.63	82.9874	9.10974
	698.528	63.2376	7.95221
	700.427	46.3282	6.80648
	702.326	34.1155	5.84085
	704.224	24.7088	4.9708
	706.123	18.0223	4.24527
	708.021	13.1642	3.62825
	709.92	9.22141	3.03668
	711.819	6.64318	2.57744
	713.717	5.32433	2.30745
	715.616	4.14368	2.0356
	717.515	2.90597	1.70469
	719.413	1.50643	1.22737
	721.312	1.09442	1.04615
	723.21	0.823931	0.907707
	725.109	0.82548	0.908559
	727.008	0.515821	0.718207
	728.906	0.578022	0.760277
	730.805	0.493438	0.702452
	732.704	0.742171	0.861494
	734.602	0.934508	0.966699
	736.501	1.13571	1.0657
	738.399	0.858018	0.926293
	740.298	0.934216	0.966548
	742.197	0.531232	0.728856
	744.095	0.696093	0.834322
	745.994	0.709338	0.842222
	747.892	0.733239	0.856294
	749.791	0.45457	0.674218
	751.69	0.410061	0.64036
	753.588	0.158763	0.398451
	755.487	0.218043	0.466951
	757.386	0.502483	0.70886
	759.284	0.871828	0.933717
	761.183	1.26513	1.12478
	763.081	0.874065	0.934914
	764.98	1.16339	1.07861
	766.879	1.29752	1.13909
	768.777	1.24947	1.1178
	770.676	0.54123	0.735683
	772.575	0.340202	0.583268
	774.473	0.0666833	0.258231
	776.372	0.384381	0.619985
	778.27	0.313728	0.560114
	780.169	0.0795503	0.282047
	782.068	-0.110723	0.33275
	783.966	-0.32176	0.567239
	785.865	0.0329586	0.181545
	787.764	0.313931	0.560295
	789.662	0.848892	0.921353
	791.561	1.07745	1.038
	793.459	0.975615	0.987732
	795.358	0.594425	0.770989
	797.257	0.34936	0.591067
	799.155	0.131637	0.362818
	801.054	0.132602	0.364146
	802.952	0.0600603	0.245072
	804.851	-0.0723376	0.268957
	806.75	0.163718	0.40462
	808.648	0.384444	0.620035
	810.547	0.705307	0.839825
	812.446	0.447193	0.668725
	814.344	0.607847	0.779645
	816.243	0.280721	0.529831
	818.141	0.393197	0.627055
	820.04	0.128384	0.358307
	821.939	0.379705	0.616202
	823.837	0.527654	0.726398
	825.736	0.361404	0.601169
	827.635	0.657213	0.810687
	829.533	0.663517	0.814565
	831.432	0.380607	0.616934
	833.33	-0.0130318	0.114157
	835.229	0.0761856	0.276017
	837.128	0.259488	0.509399
	839.026	0.35006	0.591659
	840.925	0.0819239	0.286223
	842.823	0.294001	0.542219
	844.722	0.532448	0.729691
	846.621	0.698563	0.835801
	848.519	0.619145	0.786858
	850.418	0.745096	0.863189
	852.317	0.723625	0.850661
	854.215	0.62752	0.792162
	856.114	0.329997	0.574454
	858.012	0.523137	0.723282
	859.911	0.73631	0.858085
	861.81	0.899789	0.948572
	863.708	0.825178	0.908393
	865.607	0.637289	0.798304
	867.506	0.915313	0.95672
	869.404	0.900668	0.949035
	871.303	0.848639	0.921216
	873.201	0.37744	0.614362
	875.1	0.123201	0.351
	876.999	-0.265799	0.515557
	878.897	-0.354596	0.59548
	880.796	-0.478971	0.692077
	882.694	-0.524075	0.72393
	884.593	-0.54754	0.73996
	886.492	-0.456219	0.67544
	888.39	0.00629513	0.0793419
	890.289	-0.260672	0.51056
	892.188	-0.319552	0.56529
	894.086	-0.0691565	0.262976
	895.985	-0.0745084	0.272962
	897.883	-0.180816	0.425225
	899.782	-0.184328	0.429335
	901.681	0.694918	0.833617
	903.579	1.28175	1.13214
	905.478	2.41599	1.55435
	907.377	3.30793	1.81877
	909.275	4.95616	2.22624
	911.174	7.41165	2.72244
	913.072	10.9648	3.31131
	914.971	15.8899	3.98622
	916.87	22.528	4.74637
	918.768	32.2429	5.67828
	920.667	47.4221	6.88637
	922.565	70.3515	8.38758
	924.464	103.852	10.1908
	926.363	155.623	12.4749
	928.261	232.341	15.2427
	930.16	327.626	18.1004
	932.059	435.535	20.8695
	933.957	540.914	23.2576
	935.856	620.305	24.9059
	937.754	684.919	26.171
	939.653	735.521	27.1205
	941.552	803.927	28.3536
	943.45	883.281	29.72
	945.349	973.024	31.1933
	947.248	1048.52	32.3808
	949.146	1084.09	32.9255
	951.045	1080.13	32.8653
	952.943	1027	32.0468
	954.842	937.075	30.6117
	956.741	816.12	28.5678
	958.639	667.506	25.8361
	960.538	521.178	22.8293
	962.436	395.397	19.8846
	964.335	300.325	17.3299
	966.234	229.854	15.1609
	968.132	177.487	13.3224
	970.031	137.093	11.7087
	971.93	104.99	10.2465
	973.828	78.2821	8.84772
	975.727	57.2222	7.56454
	977.625	41.8108	6.46612
	979.524	30.0937	5.48577
	981.423	21.798	4.66883
	983.321	16.0706	4.00881
	985.22	11.1135	3.33369
	987.119	7.64252	2.76451
	989.017	4.75401	2.18037
	990.916	2.87008	1.69413
	992.814	2.17362	1.47432
	994.713	1.98054	1.40732
	996.612	2.82876	1.68189
	998.51	2.60133	1.61286
	1000.41	2.59249	1.61012
	1002.31	3.48566	1.86699
	1004.21	4.24322	2.05991
	1006.1	5.55769	2.35748
	1008	6.59541	2.56815
	1009.9	7.65446	2.76667
	1011.8	7.63007	2.76226
	1013.7	7.21838	2.6867
	1015.6	8.58299	2.92967
	1017.5	8.89082	2.98175
	1019.4	14.5679	3.8168
	1021.29	17.4309	4.17504
	1023.19	20.3078	4.50642
	1025.09	19.8292	4.453
	1026.99	19.605	4.42775
	1028.89	15.102	3.88614
	1030.79	13.254	3.6406
	1032.69	14.2238	3.77145
	1034.58	16.2359	4.02938
	1036.48	19.2953	4.39264
	1038.38	23.4678	4.84436
	1040.28	27.7001	5.26309
	1042.18	32.6457	5.71364
	1044.08	37.8506	6.15228
	1045.98	42.8402	6.54525
	1047.87	45.781	6.76617
	1049.77	48.3215	6.95137
	1051.67	48.2006	6.94266
	1053.57	48.9361	6.99544
	1055.47	46.0316	6.78466
	1057.37	43.8759	6.62389
	1059.27	40.8208	6.38911
	1061.16	37.9992	6.16435
	1063.06	35.4439	5.95347
	1064.96	35.4524	5.95419
	1066.86	36.5302	6.04402
	1068.76	37.7959	6.14784
	1070.66	39.0961	6.25269
	1072.56	42.0024	6.48093
	1074.46	43.7511	6.61446
	1076.35	46.3785	6.81017
	1078.25	47.3259	6.87938
	1080.15	47.471	6.88992
	1082.05	46.1021	6.78985
	1083.95	43.9377	6.62855
	1085.85	41.9991	6.48067
	1087.75	39.5958	6.29252
	1089.64	37.6061	6.13238
	1091.54	34.3513	5.861
	1093.44	32.1143	5.66694
	1095.34	28.5972	5.34764
	1097.24	26.0998	5.10879
	1099.14	22.8676	4.782
	1101.04	20.1981	4.49423
	1102.93	18.0111	4.24395
	1104.83	15.6509	3.95612
	1106.73	13.6849	3.69931
	1108.63	11.5643	3.40064
	1110.53	9.74189	3.1212
	1112.43	8.08589	2.84357
	1114.33	6.11622	2.4731
	1116.22	4.78392	2.18722
	1118.12	3.43411	1.85313
	1120.02	2.45002	1.56525
	1121.92	1.63146	1.27729
	1123.82	0.804313	0.896835
	1125.72	0.212748	0.461246
	1127.62	-0.348487	0.590328
	1129.51	-0.311609	0.55822
	1131.41	-0.0457539	0.213902
	1133.31	0.0992687	0.315069
	1135.21	0.423728	0.650944
	1137.11	0.369434	0.607811
	1139.01	0.89878	0.94804
	1140.91	1.60731	1.2678
	1142.81	2.43405	1.56014
	1144.7	2.68058	1.63725
	1146.6	2.36532	1.53796
	1148.5	1.92763	1.38839
	1150.4	0.88064	0.938424
	1152.3	0.32204	0.567485
	1154.2	-0.605353	0.778044
	1156.1	-1.13085	1.06341
	1157.99	-1.53626	1.23946
	1159.89	-1.32201	1.14979
	1161.79	-0.939758	0.969411
	1163.69	-0.646412	0.803997
	1165.59	-0.506274	0.711529
	1167.49	-0.00450646	0.0671301
	1169.39	0.673259	0.820524
	1171.28	0.763585	0.873833
	1173.18	1.04472	1.02211
	1175.08	1.49469	1.22257
	1176.98	2.43005	1.55886
	1178.88	2.75071	1.65853
	1180.78	3.051	1.74671
	1182.68	3.25458	1.80405
	1184.57	3.30549	1.8181
	1186.47	3.90456	1.97599
	1188.37	3.84909	1.96191
	1190.27	4.46903	2.11401
	1192.17	4.48105	2.11685
	1194.07	4.7562	2.18087
	1195.97	4.22531	2.05556
	1197.87	4.31633	2.07758
	1199.76	4.03309	2.00825
	1201.66	3.58986	1.89469
	1203.56	3.82292	1.95523
	1205.46	3.89521	1.97363
	1207.36	3.92117	1.9802
	1209.26	3.84222	1.96016
	1211.16	3.91508	1.97866
	1213.05	4.14764	2.03658
	1214.95	4.12637	2.03135
	1216.85	5.04163	2.24536
	1218.75	6.37711	2.52529
	1220.65	8.33872	2.88768
	1222.55	10.269	3.20452
	1224.45	13.036	3.61053
	1226.34	16.4216	4.05235
	1228.24	20.9582	4.57801
	1230.14	27.2028	5.21563
	1232.04	36.2115	6.0176
	1233.94	59.0971	7.68746
	1235.84	76.0289	8.71946
	1237.74	196.267	14.0095
	1239.63	264.715	16.2701
	1241.53	378.017	19.4427
	1243.43	439.833	20.9722
	1245.33	441.906	21.0216
	1247.23	306.914	17.519
	1249.13	239.986	15.4915
	1251.03	206.298	14.3631
	1252.93	155.153	12.456
	1254.82	142.563	11.94
	1256.72	116.222	10.7806
	1258.62	106.212	10.3059
	1260.52	95.2509	9.75966
	1262.42	87.2825	9.34251
	1264.32	84.2722	9.17999
	1266.22	78.178	8.84183
	1268.11	77.1854	8.78552
	1270.01	73.3435	8.56408
	1271.91	72.0152	8.48618
	1273.81	70.4086	8.39098
	1275.71	68.3613	8.26809
	1277.61	67.9812	8.24507
	1279.51	65.5534	8.09651
	1281.4	64.5302	8.03307
	1283.3	60.4934	7.77775
	1285.2	58.0409	7.61846
	1287.1	53.3834	7.3064
	1289	50.1897	7.08447
	1290.9	46.6354	6.82901
	1292.8	42.9825	6.55611
	1294.69	41.0208	6.40475
	1296.59	38.1111	6.17342
	1298.49	36.6993	6.058
	1300.39	34.7867	5.89803
	1302.29	33.5144	5.78917
	1304.19	32.2129	5.67564
	1306.09	31.2741	5.59233
	1307.99	30.6559	5.53677
	1309.88	30.5512	5.52731
	1311.78	30.5837	5.53025
	1313.68	31.4024	5.60378
	1315.58	32.6841	5.717
	1317.48	35.4909	5.95742
	1319.38	41.0563	6.40752
	1321.28	49.9111	7.06478
	1323.17	68.3844	8.26949
	1325.07	101.205	10.0601
	1326.97	152.106	12.3331
	1328.87	226.193	15.0397
	1330.77	277.541	16.6596
	1332.67	306.204	17.4987
	1334.57	280.209	16.7395
	1336.46	221.35	14.8778
	1338.36	154.603	12.434
	1340.26	107.635	10.3747
	1342.16	69.0891	8.31199
	1344.06	45.6362	6.75546
	1345.96	27.3143	5.22631
	1347.86	17.1037	4.13567
	1349.75	10.3226	3.21288
	1351.65	6.32771	2.51549
	1353.55	3.90326	1.97567
	1355.45	2.86614	1.69297
	1357.35	1.78983	1.33785
	1359.25	1.72851	1.31473
	1361.15	1.03699	1.01833
	1363.05	0.88478	0.940628
	1364.94	1.17116	1.0822
	1366.84	1.26035	1.12265
	1368.74	2.04786	1.43103
	1370.64	3.03931	1.74336
	1372.54	4.61789	2.14893
	1374.44	6.15643	2.48122
	1376.34	7.59056	2.7551
	1378.23	8.83611	2.97256
	1380.13	10.2129	3.19576
	1382.03	11.5076	3.39228
	1383.93	12.1446	3.48491
	1385.83	13.2477	3.63974
	1387.73	13.2602	3.64146
	1389.63	12.9613	3.60017
	1391.52	11.7502	3.42786
	1393.42	10.9237	3.30509
	1395.32	9.45875	3.07551
	1397.22	8.47253	2.91076
	1399.12	7.299	2.70167
	1401.02	6.17108	2.48417
	1402.92	5.25706	2.29283
	1404.81	3.95663	1.98913
	1406.71	3.0353	1.74221
	1408.61	2.13437	1.46095
	1410.51	1.44744	1.2031
	1412.41	0.740729	0.860656
	1414.31	0.294742	0.542902
	1416.21	0.13798	0.371456
	1418.11	-0.26263	0.512474
	1420	-0.412752	0.642458
	1421.9	-0.498788	0.706249
	1423.8	-0.648432	0.805253
	1425.7	-0.718846	0.847848
	1427.6	-0.797436	0.892993
	1429.5	-0.774592	0.880109
	1431.4	-0.436424	0.660624
	1433.29	-0.149764	0.386993
	1435.19	0.119316	0.345421
	1437.09	0.495653	0.704026
	1438.99	0.0745327	0.273007
	1440.89	-0.298348	0.546212
	1442.79	-0.290289	0.538785
	1444.69	0.0926024	0.304306
	1446.58	0.414915	0.644139
	1448.48	0.510067	0.71419
	1450.38	0.430086	0.65581
	1452.28	0.637476	0.798421
	1454.18	0.483363	0.695243
	1456.08	0.344209	0.586693
	1457.98	0.473028	0.68777
	1459.87	0.524465	0.7242
	1461.77	0.933839	0.966353
	1463.67	0.963358	0.981508
	1465.57	0.561173	0.749115
	1467.47	0.383498	0.619272
	1469.37	0.504054	0.709968
	1471.27	0.576826	0.759491
	1473.17	0.278966	0.528172
	1475.06	0.0440951	0.209988
	1476.96	0.213318	0.461863
	1478.86	0.553223	0.74379
	1480.76	0.465096	0.68198
	1482.66	0.304404	0.551728
	1484.56	-0.160208	0.40026
	1486.46	-0.107882	0.328454
	1488.35	0.00347302	0.0589323
	1490.25	-0.154206	0.392691
	1492.15	-0.200587	0.44787
	1494.05	0.365895	0.604892
	1495.95	0.777017	0.881486
	1497.85	0.706085	0.840289
	1499.75	0.646241	0.803891
	1501.64	0.395737	0.629076
	1503.54	0.654096	0.808762
	1505.44	0.183306	0.428143
	1507.34	0.0171658	0.131018
	1509.24	-0.0467249	0.216159
	1511.14	-0.19196	0.438133
	1513.04	-0.345842	0.588083
	1514.93	-0.335629	0.579335
	1516.83	-0.0783884	0.279979
	1518.73	0.340745	0.583734
	1520.63	0.649218	0.805741
	1522.53	0.956565	0.978042
	1524.43	0.803467	0.896363
	1526.33	0.927586	0.963113
	1528.23	0.900324	0.948854
	1530.12	2.15967	1.46958
	1532.02	2.52103	1.58777
	1533.92	3.54629	1.88316
	1535.82	4.46218	2.11239
	1537.72	5.07193	2.2521
	1539.62	5.93265	2.4357
	1541.52	6.71871	2.59205
	1543.41	7.47978	2.73492
	1545.31	8.75844	2.95947
	1547.21	8.98777	2.99796
	1549.11	9.67662	3.11073
	1551.01	9.98596	3.16006
	1552.91	10.1139	3.18023
	1554.81	10.1063	3.17904
	1556.7	9.74529	3.12175
	1558.6	9.20303	3.03365
	1560.5	9.02764	3.0046
	1562.4	8.25981	2.87399
	1564.3	7.59613	2.75611
	1566.2	7.19787	2.68288
	1568.1	7.26625	2.6956
	1569.99	7.52909	2.74392
	1571.89	7.98362	2.82553
	1573.79	8.51147	2.91744
	1575.69	8.78305	2.96362
	1577.59	9.10182	3.01692
	1579.49	9.52846	3.08682
	1581.39	9.93454	3.15191
	1583.29	10.4222	3.22834
	1585.18	10.965	3.31135
	1587.08	11.7332	3.42538
	1588.98	12.6398	3.55526
	1590.88	13.8091	3.71606
	1592.78	14.8024	3.84739
	1594.68	15.4822	3.93475
	1596.58	15.4205	3.92689
	1598.47	16.0588	4.00735
	1600.37	16.1832	4.02284
	1602.27	16.3465	4.04308
	1604.17	16.3738	4.04645
	1606.07	16.4503	4.0559
	1607.97	17.1305	4.1389
	1609.87	17.968	4.23887
	1611.76	18.7965	4.3355
	1613.66	19.5119	4.41723
	1615.56	20.1226	4.48582
	1617.46	20.8714	4.56852
	1619.36	21.336	4.61909
	1621.26	21.6454	4.65246
	1623.16	21.5852	4.64599
	1625.05	20.8426	4.56537
	1626.95	19.6678	4.43484
	1628.85	18.0251	4.2456
	1630.75	16.5478	4.0679
	1632.65	15.0158	3.87503
	1634.55	14.3101	3.78288
	1636.45	13.2801	3.64419
	1638.34	11.9033	3.45012
	1640.24	10.6575	3.26459
	1642.14	9.77823	3.12702
	1644.04	9.55618	3.09131
	1645.94	9.44896	3.07392
	1647.84	9.80473	3.13125
	1649.74	8.93812	2.98967
	1651.64	8.44332	2.90574
	1653.53	8.46259	2.90905
	1655.43	8.80919	2.96803
	1657.33	8.25669	2.87345
	1659.23	8.12605	2.85062
	1661.13	7.41532	2.72311
	1663.03	6.82089	2.61168
	1664.93	6.24664	2.49933
	1666.82	5.37686	2.31881
	1668.72	4.81815	2.19503
	1670.62	3.58002	1.89209
	1672.52	2.63629	1.62366
	1674.42	1.80934	1.34512
	1676.32	1.3007	1.14048
	1678.22	0.962435	0.981038
	1680.11	0.690754	0.831116
	1682.01	0.729226	0.853948
	1683.91	0.514788	0.717487
	1685.81	0.488734	0.699095
	1687.71	0.270733	0.52032
	1689.61	0.338852	0.58211
	1691.51	0.144489	0.380117
	1693.4	-0.0568447	0.238421
	1695.3	-0.461169	0.679094
	1697.2	-0.433117	0.658116
	1699.1	-0.0991213	0.314835
	1701	0.0443274	0.210541
	1702.9	-0.136637	0.369644
	1704.8	-0.530685	0.728481
	1706.7	-0.434278	0.658998
	1708.59	-0.735887	0.857838
	1710.49	-0.919833	0.959079
	1712.39	-0.671519	0.819463
	1714.29	-0.2404	0.490306
	1716.19	-0.158003	0.397495
	1718.09	0.0396582	0.199144
	1719.99	-0.0356348	0.188772
	1721.88	0.385629	0.620991
	1723.78	0.772603	0.878978
	1725.68	1.33398	1.15498
	1727.58	1.51508	1.23089
	1729.48	1.89388	1.37618
	1731.38	2.29633	1.51537
	1733.28	3.38265	1.8392
	1735.17	4.46931	2.11407
	1737.07	5.72121	2.39191
	1738.97	7.20143	2.68355
	1740.87	9.2397	3.03969
	1742.77	11.9296	3.45393
	1744.67	15.1975	3.8984
	1746.57	19.05	4.36463
	1748.46	24.2884	4.92833
	1750.36	30.7196	5.54253
	1752.26	39.2245	6.26295
	1754.16	50.2032	7.08542
	1756.06	61.4546	7.8393
	1757.96	72.5677	8.51867
	1759.86	79.5522	8.9192
	1761.76	85.2308	9.23205
	1763.65	86.6849	9.31047
	1765.55	87.908	9.37593
	1767.45	87.9206	9.3766
	1769.35	90.9923	9.53899
	1771.25	94.6029	9.7264
	1773.15	99.0418	9.95198
	1775.05	99.5805	9.97901
	1776.94	98.4607	9.92274
	1778.84	95.3217	9.76328
	1780.74	93.9001	9.69021
	1782.64	97.2357	9.86082
	1784.54	96.0565	9.80084
	1786.44	120.024	10.9555
	1788.34	113.248	10.6418
	1790.23	123.164	11.0979
	1792.13	114.678	10.7088
	1794.03	100.977	10.0488
	1795.93	80.7095	8.98385
	1797.83	72.8369	8.53445
	1799.73	51.7924	7.19669
	1801.63	46.8148	6.84213
	1803.52	33.0757	5.75115
	1805.42	30.1636	5.49214
	1807.32	22.3659	4.72926
	1809.22	18.3153	4.27963
	1811.12	16.3464	4.04307
	1813.02	13.9135	3.73008
	1814.92	12.2937	3.50624
	1816.82	10.1979	3.19341
	1818.71	9.4897	3.08054
	1820.61	7.90299	2.81123
	1822.51	6.65765	2.58024
	1824.41	5.86262	2.42128
	1826.31	5.74703	2.3973
	1828.21	6.02147	2.45387
	1830.11	6.05097	2.45987
	1832	6.05895	2.46149
	1833.9	6.08245	2.46626
	1835.8	6.13508	2.47691
	1837.7	5.98916	2.44728
	1839.6	5.97946	2.44529
	1841.5	6.62964	2.57481
	1843.4	7.19174	2.68174
	1845.29	7.64548	2.76505
	1847.19	8.18858	2.86157
	1849.09	9.68114	3.11145
	1850.99	11.571	3.40161
	1852.89	14.118	3.75739
	1854.79	16.958	4.11801
	1856.69	20.3373	4.50969
	1858.58	23.9961	4.89858
	1860.48	27.903	5.28233
	1862.38	32.5444	5.70477
	1864.28	37.8765	6.15439
	1866.18	43.9032	6.62595
	1868.08	50.3898	7.09858
	1869.98	57.2355	7.56541
	1871.88	62.3541	7.89646
	1873.77	65.4086	8.08756
	1875.67	66.5243	8.15624
	1877.57	67.4131	8.21055
	1879.47	67.748	8.23092
	1881.37	67.1842	8.1966
	1883.27	64.188	8.01174
	1885.17	59.7151	7.72756
	1887.06	53.709	7.32864
	1888.96	48.5972	6.97117
	1890.86	43.105	6.56544
	1892.76	37.5501	6.12781
	1894.66	31.9495	5.65239
	1896.56	27.598	5.25338
	1898.46	23.8611	4.88479
	1900.35	20.0006	4.4722
	1902.25	16.4245	4.05272
	1904.15	12.6745	3.56013
	1906.05	9.42346	3.06976
	1907.95	6.80056	2.60779
	1909.85	4.78036	2.1864
	1911.75	3.03251	1.74141
	1913.64	1.74631	1.32148
	1915.54	0.950759	0.975069
	1917.44	0.61563	0.784621
	1919.34	0.803538	0.896403
	1921.24	1.77786	1.33337
	1923.14	2.79014	1.67037
	1925.04	4.21342	2.05266
	1926.94	5.69664	2.38676
	1928.83	7.85334	2.80238
	1930.73	10.733	3.27612
	1932.63	14.8891	3.85864
	1934.53	20.6221	4.54115
	1936.43	28.958	5.38126
	1938.33	39.8346	6.31146
	1940.23	52.1141	7.21901
	1942.12	62.5533	7.90907
	1944.02	68.6554	8.28586
	1945.92	69.2958	8.32441
	1947.82	65.8167	8.11275
	1949.72	60.8761	7.80232
	1951.62	55.7663	7.46768
	1953.52	51.0642	7.14592
	1955.41	46.8223	6.84268
	1957.31	41.388	6.43335
	1959.21	35.5149	5.95943
	1961.11	29.2299	5.40647
	1963.01	24.5156	4.95132
	1964.91	20.0413	4.47675
	1966.81	17.6008	4.19534
	1968.7	15.0389	3.878
	1970.6	13.2741	3.64336
	1972.5	11.3697	3.37189
	1974.4	10.4234	3.22854
	1976.3	9.14112	3.02343
	1978.2	7.69635	2.77423
	1980.1	6.34007	2.51795
	1982	5.45711	2.33605
	1983.89	4.93151	2.2207
	1985.79	4.02847	2.00711
	1987.69	3.83161	1.95745
	1989.59	3.09841	1.76023
	1991.49	3.35432	1.83148
	1993.39	3.46259	1.8608
	1995.29	4.01192	2.00298
	1997.18	4.501	2.12156
	1999.08	5.62883	2.37252
	2000.98	6.02782	2.45516
	2002.88	6.81614	2.61077
	2004.78	7.40717	2.72161
	2006.68	8.50891	2.917
	2008.58	9.6807	3.11138
	2010.47	10.9035	3.30204
	2012.37	11.747	3.42739
	2014.27	12.7163	3.56599
	2016.17	13.6758	3.69808
	2018.07	14.2862	3.77971
	2019.97	14.4667	3.80351
	2021.87	14.6199	3.8236
	2023.76	14.7126	3.8357
	2025.66	14.3436	3.78729
	2027.56	14.344	3.78735
	2029.46	14.6625	3.82917
	2031.36	15.7365	3.96693
	2033.26	16.2352	4.0293
	2035.16	16.5917	4.07329
	2037.06	16.9988	4.12296
	2038.95	18.0328	4.2465
	2040.85	18.9127	4.34887
	2042.75	19.8259	4.45263
	2044.65	20.7079	4.55059
	2046.55	21.7822	4.66715
	2048.45	22.6683	4.76113
	2050.35	23.7131	4.86961
	2052.24	24.8775	4.98773
	2054.14	26.2127	5.11983
	2056.04	28.4541	5.33424
	2057.94	30.5077	5.52337
	2059.84	32.716	5.71979
	2061.74	34.7028	5.8909
	2063.64	37.2287	6.10154
	2065.53	40.0332	6.32718
	2067.43	43.0015	6.55755
	2069.33	45.7769	6.76586
	2071.23	48.581	6.97001
	2073.13	52.2548	7.22875
	2075.03	55.4739	7.44808
	2076.93	60.3202	7.76661
	2078.82	65.3569	8.08436
	2080.72	75.6608	8.69832
	2082.62	84.9512	9.2169
	2084.52	98.88	9.94384
	2086.42	118.497	10.8856
	2088.32	151.368	12.3032
	2090.22	193.939	13.9262
	2092.12	251.426	15.8564
	2094.01	302.884	17.4036
	2095.91	291.986	17.0876
	2097.81	228.337	15.1108
	2099.71	174.435	13.2074
	2101.61	122.604	11.0727
	2103.51	86.2986	9.2897
	2105.41	61.2429	7.82578
	2107.3	40.9336	6.39794
	2109.2	29.893	5.46745
	2111.1	21.7245	4.66096
	2113	16.5964	4.07387
	2114.9	12.4765	3.53221
	2116.8	9.26874	3.04446
	2118.7	6.56936	2.56308
	2120.59	4.49769	2.12078
	2122.49	3.19582	1.78769
	2124.39	1.92331	1.38683
	2126.29	1.14634	1.07067
	2128.19	0.59059	0.768498
	2130.09	0.818799	0.904875
	2131.99	1.39927	1.18291
	2133.88	2.31374	1.5211
	2135.78	3.48175	1.86595
	2137.68	5.13188	2.26537
	2139.58	6.75378	2.5988
	2141.48	8.04486	2.83635
	2143.38	9.08373	3.01392
	2145.28	9.77977	3.12726
	2147.17	10.2505	3.20164
	2149.07	10.4216	3.22825
	2150.97	10.4943	3.2395
	2152.87	10.3923	3.22371
	2154.77	10.9577	3.31024
	2156.67	11.8267	3.439
	2158.57	13.0835	3.61712
	2160.47	13.9536	3.73546
	2162.36	13.6615	3.69614
	2164.26	12.2516	3.50024
	2166.16	9.54649	3.08974
	2168.06	6.88192	2.62334
	2169.96	4.575	2.13892
	2171.86	3.20382	1.78992
	2173.76	2.29149	1.51377
	2175.65	1.85619	1.36242
	2177.55	1.49961	1.22459
	2179.45	0.946422	0.972842
	2181.35	0.308671	0.555581
	2183.25	-0.435422	0.659865
	2185.15	-0.626443	0.791482
	2187.05	-0.855733	0.925058
	2188.94	-0.77393	0.879733
	2190.84	-0.782643	0.884671
	2192.74	-0.839184	0.91607
	2194.64	-0.644164	0.802598
	2196.54	-0.514822	0.717511
	2198.44	-0.326357	0.571277
	2200.34	-0.0771165	0.277699
	2202.23	0.24616	0.496145
	2204.13	0.417349	0.646025
	2206.03	0.314196	0.560532
	2207.93	0.39579	0.629118
	2209.83	0.177265	0.421029
	2211.73	0.236195	0.485999
	2213.63	0.395942	0.629239
	2215.53	0.501739	0.708335
	2217.42	0.553365	0.743885
	2219.32	0.744012	0.862561
	2221.22	0.865827	0.930498
	2223.12	0.6829	0.826377
	2225.02	0.457534	0.676412
	2226.92	0.313979	0.560338
	2228.82	0.345579	0.58786
	2230.71	0.382626	0.618567
	2232.61	0.390205	0.624664
	2234.51	0.289099	0.53768
	2236.41	0.0533547	0.230986
	2238.31	0.0100261	0.100131
	2240.21	-0.0317657	0.178229
	2242.11	0.0982473	0.313444
	2244	0.0586714	0.242222
	2245.9	-0.273796	0.523255
	2247.8	-0.330063	0.574511
	2249.7	-0.409373	0.639823
	2251.6	-0.477958	0.691345
	2253.5	-0.531284	0.728892
	2255.4	-0.348078	0.589982
	2257.29	-0.0146302	0.120955
	2259.19	0.268787	0.518447
	2261.09	0.15334	0.391587
	2262.99	0.0298969	0.172907
	2264.89	-0.0554556	0.23549
	2266.79	-0.0356551	0.188826
	2268.69	0.136338	0.36924
	2270.59	0.275276	0.524667
	2272.48	0.0792612	0.281534
	2274.38	0.131072	0.362038
	2276.28	0.350205	0.591781
	2278.18	0.514954	0.717603
	2280.08	0.587524	0.766501
	2281.98	0.489829	0.699878
	2283.88	0.778242	0.88218
	2285.77	0.73546	0.857589
	2287.67	0.87484	0.935329
	2289.57	0.647986	0.804976
	2291.47	0.704064	0.839085
	2293.37	0.508823	0.713319
	2295.27	0.164911	0.406092
	2297.17	0.0201227	0.141854
	2299.06	-0.160921	0.40115
	2300.96	0.00221051	0.047016
	2302.86	0.174069	0.417216
	2304.76	0.526887	0.72587
	2306.66	0.624284	0.790117
	2308.56	0.434623	0.659259
	2310.46	0.40656	0.637621
	2312.35	0.481576	0.693956
	2314.25	0.710083	0.842664
	2316.15	0.730223	0.854531
	2318.05	0.880996	0.938614
	2319.95	0.73372	0.856575
	2321.85	0.411728	0.64166
	2323.75	0.0858771	0.293048
	2325.65	-0.00318875	0.056469
	2327.54	-0.0148331	0.121791
	2329.44	0.0384849	0.196176
	2331.34	0.0669627	0.258772
	2333.24	0.105339	0.32456
	2335.14	0.41481	0.644057
	2337.04	0.34866	0.590474
	2338.94	0.413013	0.642661
	2340.83	0.409394	0.639839
	2342.73	0.626413	0.791463
	2344.63	0.68731	0.829042
	2346.53	0.733358	0.856363
	2348.43	0.460138	0.678335
	2350.33	0.115865	0.340389
	2352.23	-0.0342451	0.185054
	2354.12	-0.0680346	0.260834
	2356.02	-0.0397526	0.199381
	2357.92	0.105007	0.324048
	2359.82	0.257578	0.507522
	2361.72	0.457108	0.676098
	2363.62	0.519058	0.720457
	2365.52	0.408834	0.639401
	2367.41	0.23868	0.488549
	2369.31	0.128527	0.358507
	2371.21	0.131841	0.363099
	2373.11	0.169287	0.411445
	2375.01	0.30267	0.550155
	2376.91	0.198302	0.445311
	2378.81	0.134609	0.366891
	2380.71	0.144149	0.37967
	2382.6	0.284643	0.533519
	2384.5	0.405665	0.636918
	2386.4	0.471576	0.686714
	2388.3	0.322205	0.567631
	2390.2	0.365079	0.604217
	2392.1	0.0278748	0.166957
	2394	0.12838	0.358301
	2395.89	0.221654	0.470801
	2397.79	0.41305	0.64269
	2399.69	0.291876	0.540256
	2401.59	-0.0129619	0.11385
	2403.49	-0.147196	0.383661
	2405.39	-0.0765648	0.276703
	2407.29	-0.0600698	0.245091
	2409.18	0.0663866	0.257656
	2411.08	0.00149262	0.0386344
	2412.98	0.0468603	0.216472
	2414.88	0.107153	0.327342
	2416.78	0.247784	0.497779
	2418.68	0.0503737	0.224441
	2420.58	-0.212268	0.460725
	2422.47	-0.253612	0.503599
	2424.37	0.189898	0.435772
