Generated file C:/Users/didvk/OneDrive - University of Florida/UF_Isaiah_06-16-2020-Tue/Analysis/Re0.1Mo0.9B2/Re0.1Mo0.9B2_HPXRD_run2_300_20220710 - Copy/mask&dat&fxye_4position/7_ReMoB2_33p0GPa_390psi_P1_C4_D1w_059.fxye using DIOPTAS
# == pyFAI calibration ==
# Distance Sample to Detector: 0.2103851508954585 m
# PONI: 8.889e-02, 8.665e-02 m
# Rotations: 0.008634 -0.000915 0.000000 rad
# 
# == Fit2d calibration ==
# Distance Sample-beamCenter: 210.393 mm
# Center: x=493.236, y=515.685 pix
# Tilt: 0.497 deg  TiltPlanRot: -173.953 deg
# 
# Detector Detector	 Spline= None	 PixelSize= 1.720e-04, 1.720e-04 m
#    Detector has a mask: False 
#    Detector has a dark current: False 
#    detector has a flat field: False 
# 
# Wavelength: 4.133e-11 m
# Mask applied: None
# Dark current applied: None
# Flat field applied: None
# Polarization factor: None
# Normalization factor: None
BANK	1	1129	1129 CONS	282.731	1.89862 0.4133 0.0 FXYE
	282.731	0.732349	0.855774
	284.629	-0.509165	0.713558
	286.528	-0.103976	0.322453
	288.427	1.12809	1.06212
	290.325	1.14243	1.06884
	292.224	1.47617	1.21498
	294.122	0.643085	0.801926
	296.021	0.910092	0.953987
	297.92	0.581137	0.762324
	299.818	1.03478	1.01724
	301.717	0.688994	0.830057
	303.616	0.498482	0.706033
	305.514	0.054704	0.233889
	307.413	0.222287	0.471473
	309.311	0.830743	0.911451
	311.21	1.19814	1.0946
	313.109	1.48044	1.21673
	315.007	1.49728	1.22364
	316.906	1.8033	1.34287
	318.805	1.93127	1.3897
	320.703	2.00467	1.41586
	322.602	1.86364	1.36515
	324.5	2.53653	1.59265
	326.399	2.97977	1.7262
	328.298	3.2764	1.81008
	330.196	2.91534	1.70744
	332.095	2.71613	1.64807
	333.993	3.22038	1.79454
	335.892	4.4412	2.10742
	337.791	5.99878	2.44924
	339.689	8.69842	2.94931
	341.588	13.7371	3.70636
	343.487	20.9834	4.58077
	345.385	30.1679	5.49253
	347.284	36.7326	6.06074
	349.182	36.7113	6.05899
	351.081	31.4949	5.61203
	352.98	23.4776	4.84537
	354.878	15.9551	3.99438
	356.777	10.1887	3.19197
	358.676	6.30979	2.51193
	360.574	3.66649	1.91481
	362.473	2.85181	1.68873
	364.371	2.01963	1.42114
	366.27	2.04389	1.42965
	368.169	1.34047	1.15779
	370.067	1.62887	1.27627
	371.966	1.54674	1.24368
	373.864	1.90074	1.37867
	375.763	1.37944	1.1745
	377.662	1.06369	1.03135
	379.56	0.867519	0.931407
	381.459	0.696528	0.834583
	383.358	0.602912	0.776474
	385.256	1.01813	1.00903
	387.155	1.08842	1.04327
	389.053	1.21459	1.10209
	390.952	0.832061	0.912174
	392.851	0.730241	0.854541
	394.749	0.767705	0.876188
	396.648	0.895683	0.946405
	398.547	1.10086	1.04922
	400.445	0.680483	0.824914
	402.344	0.340697	0.583693
	404.242	0.00447604	0.0669032
	406.141	0.31486	0.561124
	408.04	0.434306	0.659019
	409.938	0.74078	0.860686
	411.837	0.793702	0.890899
	413.735	0.410318	0.640561
	415.634	0.370073	0.608336
	417.533	0.679661	0.824416
	419.431	0.77751	0.881765
	421.33	0.875122	0.93548
	423.229	0.624238	0.790087
	425.127	1.07906	1.03878
	427.026	0.742388	0.861619
	428.924	0.818038	0.904454
	430.823	0.495999	0.704272
	432.722	0.578351	0.760494
	434.62	0.570033	0.755005
	436.519	0.609185	0.780503
	438.418	0.587434	0.766442
	440.316	0.700113	0.836727
	442.215	0.133367	0.365195
	444.113	0.0509824	0.225793
	446.012	-0.23807	0.487924
	447.911	-0.172086	0.414833
	449.809	0.0373634	0.193296
	451.708	0.402222	0.63421
	453.606	0.719851	0.848441
	455.505	0.765896	0.875155
	457.404	0.51649	0.718672
	459.302	0.659585	0.812148
	461.201	0.286861	0.535594
	463.1	0.141428	0.376069
	464.998	-0.0934335	0.305669
	466.897	0.147223	0.383696
	468.795	0.359717	0.599764
	470.694	0.574795	0.758152
	472.593	1.10734	1.0523
	474.491	1.04074	1.02017
	476.39	0.618133	0.786214
	478.289	0.547091	0.739656
	480.187	0.652809	0.807966
	482.086	1.03576	1.01772
	483.984	0.843824	0.918599
	485.883	0.971057	0.985422
	487.782	1.02953	1.01466
	489.68	0.889818	0.943302
	491.579	0.650748	0.806689
	493.478	0.0710243	0.266504
	495.376	-0.0196437	0.140156
	497.275	0.117764	0.343167
	499.173	0.372202	0.610083
	501.072	0.823964	0.907725
	502.971	0.765032	0.874661
	504.869	1.22717	1.10778
	506.768	1.03516	1.01743
	508.666	0.710059	0.84265
	510.565	0.556921	0.746271
	512.464	0.495446	0.70388
	514.362	0.288459	0.537084
	516.261	0.180572	0.424938
	518.16	0.101582	0.31872
	520.058	-0.00546958	0.0739566
	521.957	0.137963	0.371433
	523.855	0.0644167	0.253804
	525.754	0.435846	0.660186
	527.653	0.800473	0.894691
	529.551	1.01895	1.00943
	531.45	0.790604	0.889159
	533.349	0.341572	0.584442
	535.247	0.253228	0.503218
	537.146	0.1127	0.335708
	539.044	0.0564394	0.23757
	540.943	0.115915	0.340462
	542.842	0.110697	0.332711
	544.74	0.00762753	0.0873357
	546.639	0.193988	0.44044
	548.537	0.785685	0.886389
	550.436	1.34135	1.15817
	552.335	1.36801	1.16962
	554.233	1.27561	1.12943
	556.132	1.3804	1.1749
	558.031	0.930838	0.964799
	559.929	0.763014	0.873507
	561.828	0.912345	0.955167
	563.726	0.955799	0.97765
	565.625	0.57801	0.76027
	567.524	0.0544242	0.23329
	569.422	0.141233	0.375809
	571.321	0.904831	0.951226
	573.22	1.3972	1.18203
	575.118	1.46578	1.21069
	577.017	0.926092	0.962337
	578.915	0.189745	0.435598
	580.814	-0.0767827	0.277097
	582.713	0.025225	0.158824
	584.611	0.443572	0.666012
	586.51	0.223838	0.473115
	588.408	0.152972	0.391116
	590.307	0.168641	0.410659
	592.206	0.740755	0.860672
	594.104	0.687917	0.829408
	596.003	1.15096	1.07283
	597.902	1.20744	1.09884
	599.8	1.23593	1.11172
	601.699	0.336171	0.579803
	603.597	-0.146231	0.382402
	605.496	-0.195582	0.442246
	607.395	0.362558	0.602128
	609.293	0.361886	0.60157
	611.192	0.0791441	0.281326
	613.091	-0.194585	0.441118
	614.989	0.266491	0.516228
	616.888	0.456824	0.675887
	618.786	0.395247	0.628686
	620.685	0.0424255	0.205975
	622.584	0.047592	0.218156
	624.482	0.293772	0.542007
	626.381	0.418904	0.647228
	628.279	0.862853	0.928899
	630.178	1.14073	1.06805
	632.077	1.02536	1.0126
	633.975	1.23373	1.11073
	635.874	1.22279	1.1058
	637.773	1.53154	1.23755
	639.671	1.09052	1.04428
	641.57	1.05217	1.02575
	643.468	1.03606	1.01787
	645.367	1.40444	1.18509
	647.266	1.92746	1.38833
	649.164	2.65716	1.63008
	651.063	3.60861	1.89964
	652.962	4.81344	2.19396
	654.86	6.8562	2.61844
	656.759	10.3693	3.22013
	658.657	15.003	3.87337
	660.556	20.5944	4.5381
	662.455	24.5476	4.95455
	664.353	26.3655	5.13473
	666.252	25.0768	5.00768
	668.15	22.1837	4.70995
	670.049	18.8805	4.34517
	671.948	15.7945	3.97423
	673.846	13.5582	3.68214
	675.745	13.1	3.61939
	677.644	14.4671	3.80357
	679.542	17.2801	4.15693
	681.441	21.7385	4.66246
	683.339	29.2671	5.40991
	685.238	41.088	6.40999
	687.137	61.4832	7.84112
	689.035	91.4264	9.56171
	690.934	130.142	11.408
	692.833	171.082	13.0798
	694.731	196.254	14.0091
	696.63	200.8	14.1704
	698.528	186.984	13.6742
	700.427	167.959	12.9599
	702.326	150.948	12.2861
	704.224	131.497	11.4672
	706.123	108.503	10.4165
	708.021	84.427	9.18842
	709.92	61.9824	7.87289
	711.819	42.2771	6.50209
	713.717	26.9132	5.1878
	715.616	16.7516	4.09288
	717.515	11.2526	3.35449
	719.413	7.52734	2.7436
	721.312	5.51302	2.34798
	723.21	4.17971	2.04443
	725.109	3.69052	1.92107
	727.008	2.85459	1.68955
	728.906	2.0066	1.41655
	730.805	1.25716	1.12123
	732.704	1.51295	1.23002
	734.602	1.64765	1.28361
	736.501	1.36576	1.16866
	738.399	0.922583	0.960512
	740.298	0.655954	0.80991
	742.197	0.623279	0.78948
	744.095	0.742923	0.86193
	745.994	0.620764	0.787886
	747.892	0.0599255	0.244797
	749.791	-0.0478269	0.218694
	751.69	0.359531	0.599609
	753.588	0.747792	0.86475
	755.487	0.5996	0.774338
	757.386	0.953346	0.976394
	759.284	0.860797	0.927791
	761.183	0.925519	0.962039
	763.081	0.766315	0.875394
	764.98	0.667618	0.817079
	766.879	0.550575	0.742007
	768.777	0.762354	0.873129
	770.676	0.49376	0.70268
	772.575	0.448334	0.669577
	774.473	-0.0194659	0.13952
	776.372	0.733583	0.856495
	778.27	0.794525	0.891361
	780.169	0.696484	0.834556
	782.068	0.0585846	0.242043
	783.966	-0.203068	0.450631
	785.865	0.0308437	0.175624
	787.764	0.600567	0.774962
	789.662	0.990228	0.995102
	791.561	1.08459	1.04144
	793.459	1.08254	1.04045
	795.358	1.12856	1.06234
	797.257	0.987212	0.993585
	799.155	0.952283	0.97585
	801.054	1.00627	1.00313
	802.952	1.70159	1.30445
	804.851	1.67929	1.29587
	806.75	1.50075	1.22505
	808.648	1.17945	1.08602
	810.547	1.06192	1.0305
	812.446	0.743509	0.862269
	814.344	0.348631	0.59045
	816.243	0.278717	0.527937
	818.141	0.418872	0.647203
	820.04	0.395062	0.62854
	821.939	0.441332	0.664328
	823.837	0.227183	0.476637
	825.736	0.171916	0.414628
	827.635	0.321681	0.56717
	829.533	0.188647	0.434335
	831.432	0.0132555	0.115133
	833.33	0.00720369	0.0848746
	835.229	0.460852	0.678861
	837.128	0.929399	0.964053
	839.026	1.18262	1.08748
	840.925	1.19388	1.09265
	842.823	1.33128	1.15381
	844.722	1.41679	1.19029
	846.621	1.43988	1.19995
	848.519	1.36765	1.16946
	850.418	1.50821	1.22809
	852.317	1.49595	1.22309
	854.215	1.01913	1.00952
	856.114	0.545841	0.738811
	858.012	0.185856	0.43111
	859.911	0.697847	0.835372
	861.81	0.978912	0.9894
	863.708	0.822009	0.906647
	865.607	0.362109	0.601755
	867.506	0.381543	0.617692
	869.404	0.760738	0.872203
	871.303	0.737169	0.858585
	873.201	0.421146	0.648958
	875.1	0.173773	0.416861
	876.999	-0.0822437	0.286782
	878.897	-0.363722	0.603094
	880.796	-0.511968	0.715519
	882.694	-0.131661	0.362851
	884.593	-0.0284469	0.168662
	886.492	0.211168	0.45953
	888.39	-0.0931554	0.305214
	890.289	-0.427457	0.653802
	892.188	-0.540144	0.734945
	894.086	-0.333471	0.577469
	895.985	0.0961761	0.310123
	897.883	0.841655	0.917417
	899.782	1.1	1.04881
	901.681	1.45157	1.20481
	903.579	2.0096	1.4176
	905.478	3.11476	1.76487
	907.377	4.1564	2.03873
	909.275	5.21746	2.28418
	911.174	6.4671	2.54305
	913.072	8.08452	2.84333
	914.971	10.8913	3.30019
	916.87	14.4288	3.79852
	918.768	19.8923	4.46008
	920.667	27.5471	5.24853
	922.565	38.0433	6.16793
	924.464	53.3303	7.30276
	926.363	75.526	8.69057
	928.261	109.624	10.4701
	930.16	158.866	12.6042
	932.059	224.437	14.9812
	933.957	303.441	17.4196
	935.856	388.941	19.7216
	937.754	473.716	21.765
	939.653	552.659	23.5087
	941.552	618.385	24.8673
	943.45	666.713	25.8208
	945.349	701.437	26.4847
	947.248	710.32	26.6518
	949.146	709.197	26.6308
	951.045	686.165	26.1948
	952.943	658.272	25.6568
	954.842	619.913	24.8981
	956.741	581.824	24.121
	958.639	542.09	23.2828
	960.538	496.091	22.2731
	962.436	447.417	21.1522
	964.335	395.624	19.8903
	966.234	326.729	18.0756
	968.132	254.294	15.9466
	970.031	188.356	13.7243
	971.93	141.446	11.8931
	973.828	104.917	10.2429
	975.727	79.4096	8.91121
	977.625	61.3338	7.83159
	979.524	47.4147	6.88583
	981.423	36.3931	6.03267
	983.321	28.0286	5.2942
	985.22	20.6645	4.54583
	987.119	14.9833	3.87083
	989.017	9.60573	3.09931
	990.916	6.32334	2.51463
	992.814	3.99054	1.99763
	994.713	2.23421	1.49473
	996.612	0.871811	0.933708
	998.51	-0.337508	0.580954
	1000.41	-0.691049	0.831294
	1002.31	-0.718066	0.847387
	1004.21	-0.56829	0.75385
	1006.1	-0.240373	0.490279
	1008	0.343886	0.586418
	1009.9	1.02958	1.01468
	1011.8	1.3362	1.15594
	1013.7	1.2733	1.12841
	1015.6	1.14948	1.07214
	1017.5	0.838332	0.915605
	1019.4	1.03258	1.01616
	1021.29	0.969557	0.984661
	1023.19	0.803277	0.896257
	1025.09	0.858404	0.926501
	1026.99	0.613399	0.783198
	1028.89	1.13787	1.06671
	1030.79	0.974347	0.98709
	1032.69	2.57912	1.60596
	1034.58	5.31682	2.30582
	1036.48	8.97898	2.99649
	1038.38	17.7493	4.21299
	1040.28	25.717	5.07119
	1042.18	37.2063	6.0997
	1044.08	62.5263	7.90735
	1045.98	63.4324	7.96445
	1047.87	58.7425	7.66437
	1049.77	50.6289	7.1154
	1051.67	45.9547	6.77899
	1053.57	31.6035	5.6217
	1055.47	30.899	5.55869
	1057.37	28.6144	5.34925
	1059.27	28.2855	5.31841
	1061.16	28.6257	5.3503
	1063.06	29.1627	5.40025
	1064.96	30.0921	5.48563
	1066.86	31.2462	5.58983
	1068.76	32.9112	5.73683
	1070.66	34.517	5.87512
	1072.56	36.6087	6.05051
	1074.46	38.944	6.24051
	1076.35	41.2691	6.42411
	1078.25	43.7391	6.61355
	1080.15	47.6382	6.90204
	1082.05	49.3334	7.02378
	1083.95	52.1031	7.21825
	1085.85	53.7886	7.33407
	1087.75	56.5741	7.52157
	1089.64	58.436	7.64434
	1091.54	60.295	7.76498
	1093.44	60.9594	7.80765
	1095.34	60.7703	7.79553
	1097.24	60.239	7.76138
	1099.14	58.9484	7.67778
	1101.04	56.2293	7.49862
	1102.93	52.5434	7.24868
	1104.83	48.2643	6.94725
	1106.73	45.7273	6.7622
	1108.63	41.3267	6.42859
	1110.53	38.6423	6.2163
	1112.43	35.6136	5.96771
	1114.33	32.8048	5.72754
	1116.22	31.9709	5.65428
	1118.12	29.0424	5.3891
	1120.02	27.8938	5.28146
	1121.92	24.5912	4.95895
	1123.82	21.6615	4.65419
	1125.72	18.7983	4.3357
	1127.62	16.6068	4.07515
	1129.51	14.2651	3.77691
	1131.41	12.3762	3.51798
	1133.31	11.2198	3.34959
	1135.21	10.4696	3.23567
	1137.11	9.07327	3.01219
	1139.01	6.73198	2.59461
	1140.91	6.05121	2.45992
	1142.81	6.97755	2.6415
	1144.7	7.67897	2.77109
	1146.6	7.81104	2.79482
	1148.5	7.22684	2.68828
	1150.4	6.37048	2.52398
	1152.3	5.06351	2.25022
	1154.2	4.08783	2.02184
	1156.1	3.2358	1.79883
	1157.99	1.94014	1.39289
	1159.89	0.93637	0.967662
	1161.79	0.200803	0.44811
	1163.69	-0.095783	0.309488
	1165.59	-0.0827638	0.287687
	1167.49	0.259748	0.509654
	1169.39	2.0764	1.44097
	1171.28	2.89872	1.70256
	1173.18	2.91276	1.70668
	1175.08	2.27996	1.50995
	1176.98	2.01626	1.41995
	1178.88	1.56135	1.24954
	1180.78	1.24188	1.1144
	1182.68	1.46407	1.20999
	1184.57	1.23676	1.1121
	1186.47	0.94393	0.97156
	1188.37	0.28496	0.533817
	1190.27	-0.0742565	0.2725
	1192.17	-0.303462	0.550874
	1194.07	-0.702892	0.838387
	1195.97	-1.30153	1.14085
	1197.87	-1.40747	1.18637
	1199.76	-1.22376	1.10624
	1201.66	-1.12372	1.06006
	1203.56	-0.715064	0.845615
	1205.46	0.257646	0.507588
	1207.36	1.76632	1.32903
	1209.26	3.19117	1.78638
	1211.16	5.18935	2.27801
	1213.05	6.42709	2.53517
	1214.95	8.01625	2.8313
	1216.85	9.45402	3.07474
	1218.75	10.7617	3.2805
	1220.65	11.3205	3.3646
	1222.55	11.7776	3.43186
	1224.45	13.713	3.7031
	1226.34	15.1385	3.89083
	1228.24	18.2774	4.27521
	1230.14	21.0608	4.58921
	1232.04	27.7616	5.26893
	1233.94	36.7256	6.06016
	1235.84	49.1896	7.01353
	1237.74	69.2289	8.32039
	1239.63	96.0872	9.80241
	1241.53	148.649	12.1922
	1243.43	192.566	13.8768
	1245.33	341.543	18.4809
	1247.23	430.859	20.7572
	1249.13	577.49	24.031
	1251.03	633.251	25.1645
	1252.93	640.057	25.2994
	1254.82	513	22.6495
	1256.72	422.465	20.554
	1258.62	318.938	17.8588
	1260.52	237.776	15.42
	1262.42	204.096	14.2862
	1264.32	156.23	12.4992
	1266.22	140.963	11.8728
	1268.11	113.462	10.6519
	1270.01	104.899	10.242
	1271.91	89.855	9.47919
	1273.81	84.1234	9.17188
	1275.71	77.1307	8.78241
	1277.61	72.1327	8.4931
	1279.51	71.4111	8.45051
	1281.4	67.907	8.24057
	1283.3	69.1348	8.31473
	1285.2	66.602	8.16101
	1287.1	68.8417	8.29709
	1289	68.2453	8.26107
	1290.9	69.408	8.33115
	1292.8	69.7356	8.35078
	1294.69	70.1354	8.37469
	1296.59	70.6578	8.40582
	1298.49	69.1182	8.31374
	1300.39	69.4469	8.33348
	1302.29	67.0012	8.18543
	1304.19	66.3634	8.14638
	1306.09	64.3218	8.02009
	1307.99	63.242	7.95248
	1309.88	61.8255	7.86292
	1311.78	60.582	7.78345
	1313.68	59.8108	7.73375
	1315.58	58.4976	7.64837
	1317.48	59.5755	7.71852
	1319.38	60.077	7.75093
	1321.28	63.2456	7.95271
	1323.17	66.8709	8.17746
	1325.07	73.4178	8.56842
	1326.97	83.9396	9.16185
	1328.87	98.9242	9.94607
	1330.77	125.682	11.2108
	1332.67	167.728	12.951
	1334.57	228.511	15.1166
	1336.46	296.159	17.2093
	1338.36	345.891	18.5981
	1340.26	362.427	19.0375
	1342.16	331.887	18.2178
	1344.06	274.941	16.5813
	1345.96	206.255	14.3616
	1347.86	149.02	12.2074
	1349.75	99.566	9.97828
	1351.65	65.3998	8.08701
	1353.55	41.1266	6.413
	1355.45	25.4107	5.0409
	1357.35	15.0511	3.87958
	1359.25	8.22729	2.86832
	1361.15	4.25576	2.06295
	1363.05	1.90212	1.37918
	1364.94	0.906359	0.952029
	1366.84	0.248908	0.498907
	1368.74	0.0438623	0.209433
	1370.64	-0.215643	0.464374
	1372.54	0.704404	0.839288
	1374.44	1.47608	1.21494
	1376.34	2.70833	1.6457
	1378.23	3.97399	1.99349
	1380.13	4.61475	2.1482
	1382.03	4.98166	2.23196
	1383.93	6.18265	2.48649
	1385.83	7.21026	2.68519
	1387.73	7.69028	2.77314
	1389.63	8.62108	2.93617
	1391.52	8.24406	2.87125
	1393.42	8.87993	2.97992
	1395.32	8.49549	2.9147
	1397.22	8.69565	2.94884
	1399.12	7.75245	2.78432
	1401.02	6.81398	2.61036
	1402.92	6.36372	2.52264
	1404.81	5.89327	2.42761
	1406.71	5.39638	2.32301
	1408.61	4.4136	2.10086
	1410.51	3.63211	1.90581
	1412.41	2.43513	1.56049
	1414.31	1.65899	1.28802
	1416.21	1.16303	1.07844
	1418.11	1.13672	1.06617
	1420	0.770811	0.877958
	1421.9	0.342535	0.585265
	1423.8	-0.205306	0.453107
	1425.7	-0.910196	0.954042
	1427.6	-1.30504	1.14238
	1429.5	-1.02364	1.01175
	1431.4	-0.370528	0.60871
	1433.29	-0.376159	0.613318
	1435.19	-0.35694	0.597445
	1437.09	-0.406533	0.637599
	1438.99	-0.199376	0.446516
	1440.89	-0.184139	0.429115
	1442.79	-0.102108	0.319544
	1444.69	-0.37888	0.615532
	1446.58	-0.437046	0.661094
	1448.48	-0.695336	0.833868
	1450.38	-0.464162	0.681295
	1452.28	-0.288695	0.537303
	1454.18	0.0538976	0.232159
	1456.08	0.169483	0.411683
	1457.98	-0.0355871	0.188646
	1459.87	-0.206649	0.454586
	1461.77	0.0254331	0.159478
	1463.67	0.174725	0.418001
	1465.57	0.269731	0.519356
	1467.47	0.377364	0.614299
	1469.37	0.222905	0.472128
	1471.27	0.527118	0.726029
	1473.17	0.559466	0.747975
	1475.06	0.605507	0.778143
	1476.96	0.540983	0.735515
	1478.86	0.614733	0.784049
	1480.76	0.983134	0.991531
	1482.66	1.04251	1.02103
	1484.56	0.864814	0.929954
	1486.46	0.79071	0.889219
	1488.35	0.577731	0.760086
	1490.25	0.430641	0.656232
	1492.15	0.751156	0.866693
	1494.05	0.883293	0.939837
	1495.95	0.869678	0.932565
	1497.85	0.58055	0.761938
	1499.75	0.901086	0.949255
	1501.64	0.763387	0.87372
	1503.54	0.547383	0.739853
	1505.44	-0.0360946	0.189986
	1507.34	-0.277848	0.527112
	1509.24	-0.0967934	0.311116
	1511.14	0.112913	0.336025
	1513.04	0.208761	0.456904
	1514.93	0.0971744	0.311728
	1516.83	-0.00460735	0.0678774
	1518.73	0.393862	0.627585
	1520.63	0.396248	0.629482
	1522.53	0.0561153	0.236887
	1524.43	-0.248766	0.498764
	1526.33	-0.424487	0.651527
	1528.23	-0.257741	0.507682
	1530.12	0.234847	0.484611
	1532.02	0.260591	0.510481
	1533.92	0.380123	0.616541
	1535.82	0.573179	0.757086
	1537.72	1.22396	1.10633
	1539.62	1.79594	1.34013
	1541.52	1.842	1.3572
	1543.41	1.77839	1.33356
	1545.31	1.82994	1.35275
	1547.21	1.75523	1.32485
	1549.11	1.72058	1.31171
	1551.01	1.63571	1.27895
	1552.91	1.96643	1.40229
	1554.81	2.24944	1.49981
	1556.7	2.77135	1.66474
	1558.6	3.11813	1.76582
	1560.5	3.46658	1.86188
	1562.4	3.50877	1.87317
	1564.3	3.71785	1.92817
	1566.2	4.02934	2.00732
	1568.1	4.56436	2.13644
	1569.99	4.58254	2.14069
	1571.89	5.00974	2.23824
	1573.79	5.68715	2.38477
	1575.69	6.81723	2.61098
	1577.59	7.6931	2.77364
	1579.49	8.60344	2.93316
	1581.39	9.67968	3.11122
	1583.29	10.7913	3.28501
	1585.18	12.2668	3.5024
	1587.08	14.2135	3.77008
	1588.98	16.2593	4.03228
	1590.88	18.6249	4.31565
	1592.78	20.9085	4.57258
	1594.68	23.4766	4.84526
	1596.58	25.7651	5.07593
	1598.47	27.4399	5.23831
	1600.37	28.5707	5.34516
	1602.27	29.5352	5.43463
	1604.17	30.4531	5.51843
	1606.07	30.6627	5.53739
	1607.97	29.8477	5.4633
	1609.87	27.6214	5.25561
	1611.76	24.8361	4.98359
	1613.66	21.2128	4.60573
	1615.56	18.5066	4.30193
	1617.46	16.5932	4.07347
	1619.36	15.3792	3.92163
	1621.26	14.7009	3.83418
	1623.16	14.3975	3.7944
	1625.05	13.9906	3.7404
	1626.95	13.6775	3.69831
	1628.85	12.7936	3.57681
	1630.75	11.87	3.44529
	1632.65	11.4653	3.38605
	1634.55	11.1771	3.34322
	1636.45	10.9786	3.31339
	1638.34	10.0827	3.17533
	1640.24	9.44886	3.0739
	1642.14	8.44139	2.90541
	1644.04	7.52482	2.74314
	1645.94	6.89151	2.62517
	1647.84	6.70147	2.58872
	1649.74	6.40837	2.53148
	1651.64	5.65555	2.37814
	1653.53	5.30474	2.3032
	1655.43	5.07647	2.2531
	1657.33	4.75254	2.18003
	1659.23	4.61432	2.1481
	1661.13	4.64762	2.15583
	1663.03	4.7384	2.17679
	1664.93	4.77829	2.18593
	1666.82	4.71296	2.17094
	1668.72	4.95645	2.22631
	1670.62	4.9041	2.21452
	1672.52	4.80631	2.19233
	1674.42	3.97929	1.99481
	1676.32	3.03334	1.74165
	1678.22	2.26233	1.5041
	1680.11	1.68655	1.29867
	1682.01	1.61767	1.27188
	1683.91	1.37269	1.17162
	1685.81	1.25818	1.12169
	1687.71	0.919574	0.958944
	1689.61	0.536515	0.732472
	1691.51	0.146031	0.38214
	1693.4	-0.104427	0.323151
	1695.3	-0.206217	0.454111
	1697.2	-0.135282	0.367807
	1699.1	-0.120503	0.347136
	1701	-0.0796699	0.282259
	1702.9	-0.154129	0.392593
	1704.8	-0.369611	0.607957
	1706.7	-0.446286	0.668047
	1708.59	-0.413873	0.643329
	1710.49	-0.0748172	0.273527
	1712.39	-0.0954326	0.308922
	1714.29	-0.33448	0.578342
	1716.19	-0.745707	0.863543
	1718.09	-1.02919	1.01449
	1719.99	-1.01519	1.00756
	1721.88	-0.72708	0.85269
	1723.78	-0.537703	0.733282
	1725.68	-0.447258	0.668773
	1727.58	-0.728133	0.853307
	1729.48	-0.729244	0.853958
	1731.38	-0.256662	0.506618
	1733.28	0.197715	0.444652
	1735.17	0.939331	0.969191
	1737.07	1.55327	1.2463
	1738.97	2.11995	1.45601
	1740.87	2.38213	1.54341
	1742.77	3.1777	1.78261
	1744.67	4.24058	2.05927
	1746.57	5.56106	2.35819
	1748.46	7.33121	2.70762
	1750.36	9.27605	3.04566
	1752.26	12.2835	3.50478
	1754.16	15.6402	3.95477
	1756.06	21.1948	4.60378
	1757.96	28.5416	5.34243
	1759.86	38.1966	6.18034
	1761.76	49.6594	7.04694
	1763.65	61.1977	7.82289
	1765.55	71.9459	8.48209
	1767.45	80.0482	8.94696
	1769.35	84.4792	9.19126
	1771.25	86.044	9.27599
	1773.15	86.3466	9.29229
	1775.05	87.8027	9.37031
	1776.94	92.3343	9.60907
	1778.84	98.8686	9.94327
	1780.74	105.703	10.2812
	1782.64	112.986	10.6295
	1784.54	118.036	10.8644
	1786.44	126.35	11.2406
	1788.34	130.221	11.4114
	1790.23	140.47	11.852
	1792.13	150.057	12.2498
	1794.03	160.869	12.6834
	1795.93	187.956	13.7097
	1797.83	189.384	13.7617
	1799.73	215.838	14.6914
	1801.63	200.288	14.1523
	1803.52	166.562	12.9059
	1805.42	136.88	11.6996
	1807.32	104.793	10.2369
	1809.22	72.5538	8.51785
	1811.12	63.6935	7.98082
	1813.02	48.1538	6.93929
	1814.92	42.337	6.50669
	1816.82	33.9995	5.83091
	1818.71	29.3385	5.4165
	1820.61	24.0008	4.89906
	1822.51	20.1665	4.49071
	1824.41	18.0129	4.24416
	1826.31	16.8911	4.10988
	1828.21	16.2353	4.0293
	1830.11	15.3689	3.92032
	1832	15.6308	3.95358
	1833.9	15.5689	3.94575
	1835.8	14.9145	3.86193
	1837.7	14.5902	3.81972
	1839.6	13.9733	3.73809
	1841.5	13.6493	3.6945
	1843.4	13.0338	3.61023
	1845.29	12.0742	3.47479
	1847.19	11.4917	3.38995
	1849.09	11.0698	3.32712
	1850.99	11.0838	3.32923
	1852.89	10.6663	3.26593
	1854.79	10.667	3.26603
	1856.69	10.6837	3.2686
	1858.58	11.1275	3.33579
	1860.48	12.2286	3.49694
	1862.38	13.8956	3.72768
	1864.28	16.6814	4.08429
	1866.18	19.8071	4.45052
	1868.08	23.6894	4.86718
	1869.98	27.6727	5.26049
	1871.88	31.9774	5.65486
	1873.77	36.8624	6.07144
	1875.67	41.7503	6.46145
	1877.57	47.0099	6.85638
	1879.47	51.5273	7.17825
	1881.37	55.4187	7.44437
	1883.27	58.6675	7.65947
	1885.17	61.0529	7.81363
	1887.06	60.6823	7.78988
	1888.96	58.1744	7.62722
	1890.86	53.9076	7.34218
	1892.76	49.7706	7.05483
	1894.66	46.6673	6.83134
	1896.56	44.8268	6.69528
	1898.46	44.8481	6.69687
	1900.35	47.1062	6.8634
	1902.25	52.4304	7.24088
	1904.15	59.9485	7.74264
	1906.05	70.1604	8.37618
	1907.95	80.1078	8.9503
	1909.85	86.1172	9.27994
	1911.75	84.6119	9.19847
	1913.64	76.5475	8.74914
	1915.54	63.1008	7.9436
	1917.44	48.649	6.97489
	1919.34	35.3624	5.94663
	1921.24	25.345	5.03438
	1923.14	18.0298	4.24616
	1925.04	13.1333	3.62398
	1926.94	10.0504	3.17024
	1928.83	8.22939	2.86869
	1930.73	7.3642	2.71371
	1932.63	7.19065	2.68154
	1934.53	7.67425	2.77024
	1936.43	9.24221	3.0401
	1938.33	10.8181	3.28909
	1940.23	12.7552	3.57144
	1942.12	14.9965	3.87253
	1944.02	17.9976	4.24235
	1945.92	21.0672	4.5899
	1947.82	23.5327	4.85105
	1949.72	25.5671	5.05639
	1951.62	26.3943	5.13753
	1953.52	27.0123	5.19734
	1955.41	26.6075	5.15825
	1957.31	26.4084	5.13891
	1959.21	25.8868	5.08791
	1961.11	25.6757	5.06712
	1963.01	25.5721	5.05688
	1964.91	25.295	5.02941
	1966.81	25.0013	5.00013
	1968.7	24.4012	4.93976
	1970.6	22.9218	4.78767
	1972.5	20.1967	4.49407
	1974.4	16.6031	4.07469
	1976.3	12.5447	3.54184
	1978.2	9.33252	3.05492
	1980.1	6.93477	2.6334
	1982	4.9874	2.23325
	1983.89	3.52595	1.87775
	1985.79	2.592	1.60997
	1987.69	1.43271	1.19696
	1989.59	0.83951	0.916248
	1991.49	0.477137	0.690751
	1993.39	0.396018	0.6293
	1995.29	0.567999	0.753657
	1997.18	1.0036	1.0018
	1999.08	1.6267	1.27542
	2000.98	1.89398	1.37622
	2002.88	2.20477	1.48485
	2004.78	2.63599	1.62357
	2006.68	2.91396	1.70703
	2008.58	2.89637	1.70187
	2010.47	2.92079	1.70903
	2012.37	3.40302	1.84473
	2014.27	3.55592	1.88571
	2016.17	3.63644	1.90694
	2018.07	3.77757	1.9436
	2019.97	4.71221	2.17076
	2021.87	5.27427	2.29658
	2023.76	5.44724	2.33393
	2025.66	5.65433	2.37788
	2027.56	6.22943	2.49588
	2029.46	6.80512	2.60866
	2031.36	7.2919	2.70035
	2033.26	7.62667	2.76164
	2035.16	8.20052	2.86365
	2037.06	8.72183	2.95328
	2038.95	9.28759	3.04755
	2040.85	9.47899	3.0788
	2042.75	9.8192	3.13356
	2044.65	10.3514	3.21736
	2046.55	10.9966	3.31611
	2048.45	11.5612	3.40017
	2050.35	12.2153	3.49504
	2052.24	12.8708	3.5876
	2054.14	13.1794	3.63034
	2056.04	13.9272	3.73191
	2057.94	14.489	3.80644
	2059.84	15.27	3.90768
	2061.74	15.7779	3.97214
	2063.64	16.6872	4.085
	2065.53	17.1846	4.14543
	2067.43	18.0509	4.24863
	2069.33	18.9134	4.34895
	2071.23	20.301	4.50566
	2073.13	21.9051	4.68029
	2075.03	23.528	4.85056
	2076.93	25.3285	5.03274
	2078.82	26.9161	5.18807
	2080.72	28.97	5.38237
	2082.62	31.3485	5.59897
	2084.52	33.8924	5.82172
	2086.42	36.6221	6.05162
	2088.32	39.5589	6.28959
	2090.22	43.7555	6.61479
	2092.12	48.2398	6.94549
	2094.01	54.0635	7.35279
	2095.91	60.038	7.74842
	2097.81	67.394	8.20939
	2099.71	75.112	8.66672
	2101.61	84.0977	9.17048
	2103.51	91.9262	9.58781
	2105.41	94.2443	9.70795
	2107.3	88.6842	9.41723
	2109.2	75.0091	8.66078
	2111.1	62.7303	7.92025
	2113	50.289	7.09147
	2114.9	39.7151	6.30199
	2116.8	31.0946	5.57625
	2118.7	23.8729	4.88599
	2120.59	17.1829	4.14522
	2122.49	12.2265	3.49664
	2124.39	7.8969	2.81014
	2126.29	5.35851	2.31485
	2128.19	3.67013	1.91576
	2130.09	2.30329	1.51766
	2131.99	1.49513	1.22276
	2133.88	1.27867	1.13078
	2135.78	1.54344	1.24235
	2137.68	2.16916	1.47281
	2139.58	3.21608	1.79334
	2141.48	4.56058	2.13555
	2143.38	6.42453	2.53467
	2145.28	9.26144	3.04326
	2147.17	12.7792	3.5748
	2149.07	16.5336	4.06616
	2150.97	20.7554	4.55581
	2152.87	24.5187	4.95163
	2154.77	27.295	5.22446
	2156.67	29.1756	5.40144
	2158.57	30.3293	5.50721
	2160.47	31.0175	5.56934
	2162.36	30.7793	5.54791
	2164.26	29.978	5.47521
	2166.16	28.5794	5.34597
	2168.06	27.0462	5.2006
	2169.96	25.4452	5.04433
	2171.86	23.9034	4.88911
	2173.76	21.9802	4.6883
	2175.65	20.0845	4.48158
	2177.55	18.0802	4.25208
	2179.45	15.7067	3.96316
	2181.35	12.521	3.5385
	2183.25	9.5089	3.08365
	2185.15	6.80158	2.60798
	2187.05	4.44834	2.10911
	2188.94	2.6149	1.61706
	2190.84	1.45336	1.20555
	2192.74	0.808907	0.899392
	2194.64	0.480314	0.693047
	2196.54	-0.0777072	0.27876
	2198.44	-0.554363	0.744556
	2200.34	-0.883745	0.940077
	2202.23	-0.835832	0.914239
	2204.13	-0.605339	0.778035
	2206.03	-0.510047	0.714176
	2207.93	-0.409143	0.639643
	2209.83	-0.37139	0.609418
	2211.73	-0.0948523	0.307981
	2213.63	-0.033504	0.183041
	2215.53	0.0504326	0.224572
	2217.42	0.0183404	0.135427
	2219.32	0.186946	0.432372
	2221.22	0.350943	0.592404
	2223.12	0.30512	0.552377
	2225.02	-0.0943709	0.307198
	2226.92	-0.0402358	0.200589
	2228.82	0.465934	0.682593
	2230.71	0.810531	0.900295
	2232.61	0.804768	0.897088
	2234.51	0.395722	0.629064
	2236.41	0.21822	0.46714
	2238.31	0.224249	0.47355
	2240.21	0.257295	0.507243
	2242.11	0.391452	0.625661
	2244	0.32274	0.568102
	2245.9	0.390232	0.624685
	2247.8	0.163311	0.404117
	2249.7	-0.0227672	0.150888
	2251.6	-0.0129505	0.1138
	2253.5	0.265098	0.514876
	2255.4	0.425072	0.651976
	2257.29	0.470952	0.686259
	2259.19	0.484717	0.696217
	2261.09	0.301033	0.548665
	2262.99	-0.0455863	0.21351
	2264.89	-0.281574	0.530635
	2266.79	-0.147289	0.383782
	2268.69	0.134922	0.367317
	2270.59	0.103166	0.321195
	2272.48	-0.038097	0.195185
	2274.38	0.0547107	0.233903
	2276.28	0.216644	0.46545
	2278.18	0.0362881	0.190494
	2280.08	-0.11514	0.339323
	2281.98	0.081701	0.285834
	2283.88	0.298171	0.54605
	2285.77	0.224021	0.473308
	2287.67	0.200635	0.447923
	2289.57	0.232555	0.48224
	2291.47	0.236494	0.486307
	2293.37	0.0706017	0.26571
	2295.27	0.0850893	0.291701
	2297.17	0.19223	0.43844
	2299.06	0.336006	0.57966
	2300.96	0.255087	0.505062
	2302.86	0.0781145	0.27949
	2304.76	0.177676	0.421516
	2306.66	0.269915	0.519533
	2308.56	0.472018	0.687036
	2310.46	0.462059	0.679749
	2312.35	0.315823	0.561982
	2314.25	0.0541214	0.23264
	2316.15	-0.0702431	0.265034
	2318.05	-0.0433594	0.208229
	2319.95	0.121977	0.349253
	2321.85	0.417941	0.646484
	2323.75	0.568168	0.753769
	2325.65	0.261061	0.510941
	2327.54	-0.0669552	0.258757
	2329.44	-0.0883709	0.297272
	2331.34	0.10909	0.330288
	2333.24	0.182458	0.427151
	2335.14	0.125468	0.354215
	2337.04	0.126244	0.355308
	2338.94	0.0420856	0.205148
	2340.83	-0.0465058	0.215652
	2342.73	-0.104044	0.322559
	2344.63	-0.00436949	0.0661021
	2346.53	0.307679	0.554688
	2348.43	0.578996	0.760918
	2350.33	0.539689	0.734635
	2352.23	0.388329	0.62316
	2354.12	0.275965	0.525324
	2356.02	0.351806	0.593132
	2357.92	0.472595	0.687456
	2359.82	0.53679	0.73266
	2361.72	0.665213	0.815606
	2363.62	0.668425	0.817572
	2365.52	0.412198	0.642027
	2367.41	0.350666	0.592171
	2369.31	0.322966	0.568301
	2371.21	0.412942	0.642606
	2373.11	0.467598	0.683812
	2375.01	0.601038	0.775266
	2376.91	0.610086	0.78108
	2378.81	0.523243	0.723355
	2380.71	0.471502	0.68666
	2382.6	0.445657	0.667576
	2384.5	0.306118	0.553279
	2386.4	0.0810877	0.284759
	2388.3	-0.2227	0.471911
	2390.2	-0.106004	0.325583
	2392.1	-0.0514981	0.226932
	2394	0.144567	0.38022
	2395.89	0.397843	0.630748
	2397.79	0.7857	0.886397
	2399.69	0.751143	0.866685
	2401.59	0.371941	0.60987
	2403.49	0.0949531	0.308145
	2405.39	0.0798844	0.282638
	2407.29	0.0184111	0.135687
	2409.18	-0.0134753	0.116083
	2411.08	-0.0886874	0.297804
	2412.98	-0.0825852	0.287376
	2414.88	-0.124462	0.352791
	2416.78	0.063259	0.251513
	2418.68	0.0268374	0.163821
	2420.58	0.0527454	0.229664
	2422.47	0.0631673	0.251331
	2424.37	-0.0631324	0.251262
