Generated file C:/Users/didvk/OneDrive - University of Florida/UF_Isaiah_06-16-2020-Tue/Analysis/Re0.1Mo0.9B2/Re0.1Mo0.9B2_HPXRD_run2_300_20220710 - Copy/mask&dat&fxye_4position/8_ReMoB2_38p0GPa_430psi_P1_C4_D1w_065.fxye using DIOPTAS
# == pyFAI calibration ==
# Distance Sample to Detector: 0.2103851508954585 m
# PONI: 8.889e-02, 8.665e-02 m
# Rotations: 0.008634 -0.000915 0.000000 rad
# 
# == Fit2d calibration ==
# Distance Sample-beamCenter: 210.393 mm
# Center: x=493.236, y=515.685 pix
# Tilt: 0.497 deg  TiltPlanRot: -173.953 deg
# 
# Detector Detector	 Spline= None	 PixelSize= 1.720e-04, 1.720e-04 m
#    Detector has a mask: False 
#    Detector has a dark current: False 
#    detector has a flat field: False 
# 
# Wavelength: 4.133e-11 m
# Mask applied: None
# Dark current applied: None
# Flat field applied: None
# Polarization factor: None
# Normalization factor: None
BANK	1	1129	1129 CONS	282.731	1.89862 0.4133 0.0 FXYE
	282.731	0.433792	0.658629
	284.629	0.112182	0.334936
	286.528	0.0925082	0.304152
	288.427	0.0797295	0.282364
	290.325	0.0856911	0.29273
	292.224	0.518975	0.720399
	294.122	1.10127	1.04942
	296.021	1.29151	1.13645
	297.92	1.15121	1.07295
	299.818	0.412237	0.642057
	301.717	-0.100595	0.317168
	303.616	0.132032	0.363362
	305.514	0.323442	0.568719
	307.413	0.341054	0.583998
	309.311	0.663403	0.814495
	311.21	0.609842	0.780924
	313.109	1.58809	1.26019
	315.007	1.23046	1.10926
	316.906	1.27005	1.12697
	318.805	0.736911	0.858435
	320.703	1.01646	1.0082
	322.602	1.21932	1.10423
	324.5	1.26005	1.12252
	326.399	1.29232	1.1368
	328.298	1.57682	1.25572
	330.196	1.98625	1.40934
	332.095	2.27296	1.50763
	333.993	2.85347	1.68922
	335.892	3.22011	1.79447
	337.791	3.90636	1.97645
	339.689	4.94771	2.22435
	341.588	6.91324	2.6293
	343.487	10.5139	3.24252
	345.385	14.0786	3.75214
	347.284	18.9952	4.35835
	349.182	22.7217	4.76673
	351.081	23.4617	4.84373
	352.98	20.8481	4.56598
	354.878	15.2919	3.91049
	356.777	10.6884	3.26931
	358.676	6.60788	2.57058
	360.574	3.73581	1.93283
	362.473	2.52284	1.58834
	364.371	1.93488	1.391
	366.27	1.69728	1.3028
	368.169	2.06945	1.43856
	370.067	2.28578	1.51188
	371.966	1.88021	1.37121
	373.864	0.91341	0.955725
	375.763	0.774048	0.8798
	377.662	0.826861	0.909319
	379.56	0.995776	0.997886
	381.459	1.05774	1.02846
	383.358	0.523992	0.723873
	385.256	0.542673	0.736663
	387.155	0.464381	0.681455
	389.053	0.788651	0.88806
	390.952	0.98849	0.994228
	392.851	1.06956	1.03419
	394.749	0.876494	0.936213
	396.648	1.15288	1.07372
	398.547	0.536922	0.73275
	400.445	-0.14245	0.377426
	402.344	0.231407	0.481048
	404.242	0.792682	0.890327
	406.141	1.72765	1.3144
	408.04	1.24629	1.11637
	409.938	0.986787	0.993372
	411.837	0.709943	0.842581
	413.735	0.885313	0.940911
	415.634	1.12089	1.05872
	417.533	1.02827	1.01404
	419.431	0.82203	0.906659
	421.33	0.994731	0.997362
	423.229	0.817273	0.904031
	425.127	0.771265	0.878217
	427.026	0.267032	0.516752
	428.924	0.113849	0.337415
	430.823	0.240549	0.490458
	432.722	0.519501	0.720764
	434.62	0.356625	0.597181
	436.519	0.41301	0.642659
	438.418	0.889087	0.942914
	440.316	0.989089	0.994529
	442.215	0.954117	0.976789
	444.113	0.860699	0.927739
	446.012	0.897823	0.947535
	447.911	0.348	0.589916
	449.809	0.0882873	0.297132
	451.708	0.373123	0.610838
	453.606	0.72755	0.852966
	455.505	0.882601	0.939468
	457.404	0.311859	0.558443
	459.302	-0.183036	0.427827
	461.201	-0.162813	0.403501
	463.1	0.469259	0.685025
	464.998	0.995075	0.997535
	466.897	0.901248	0.949341
	468.795	0.844357	0.918889
	470.694	0.909252	0.953547
	472.593	0.896297	0.94673
	474.491	1.22909	1.10864
	476.39	1.11088	1.05398
	478.289	1.60302	1.26611
	480.187	1.54273	1.24207
	482.086	0.660525	0.812727
	483.984	0.450943	0.671523
	485.883	0.628013	0.792473
	487.782	1.29682	1.13878
	489.68	1.7234	1.31278
	491.579	1.79372	1.3393
	493.478	1.50866	1.22828
	495.376	1.7994	1.34142
	497.275	1.90224	1.37922
	499.173	1.90732	1.38106
	501.072	1.92158	1.38621
	502.971	1.48836	1.21999
	504.869	1.26695	1.12559
	506.768	1.41843	1.19098
	508.666	1.86109	1.36422
	510.565	1.22351	1.10612
	512.464	0.849342	0.921597
	514.362	0.534827	0.731319
	516.261	0.36266	0.602212
	518.16	0.387102	0.622175
	520.058	0.119225	0.34529
	521.957	0.0522111	0.228498
	523.855	0.931003	0.964885
	525.754	1.37395	1.17216
	527.653	1.5951	1.26297
	529.551	0.778568	0.882365
	531.45	-0.108565	0.329493
	533.349	-0.565166	0.751775
	535.247	0.0901709	0.300285
	537.146	0.967463	0.983597
	539.044	1.75538	1.32491
	540.943	1.45246	1.20518
	542.842	1.28906	1.13537
	544.74	1.05977	1.02945
	546.639	0.899869	0.948614
	548.537	1.02723	1.01352
	550.436	0.977848	0.988862
	552.335	1.06309	1.03106
	554.233	1.28987	1.13572
	556.132	1.98108	1.40751
	558.031	1.38799	1.17813
	559.929	0.826497	0.909119
	561.828	0.360648	0.60054
	563.726	0.164344	0.405394
	565.625	0.626494	0.791514
	567.524	0.93942	0.969237
	569.422	1.65568	1.28673
	571.321	1.68683	1.29878
	573.22	2.29139	1.51373
	575.118	2.34646	1.53182
	577.017	2.24656	1.49885
	578.915	1.90297	1.37948
	580.814	1.80349	1.34294
	582.713	1.53367	1.23841
	584.611	0.742003	0.861396
	586.51	0.727512	0.852943
	588.408	0.421313	0.649086
	590.307	0.659092	0.811845
	592.206	-0.0684478	0.261625
	594.104	-0.0701586	0.264875
	596.003	0.180374	0.424705
	597.902	0.876327	0.936123
	599.8	0.835464	0.914037
	601.699	0.46879	0.684683
	603.597	0.212364	0.46083
	605.496	0.361965	0.601635
	607.395	0.773638	0.879567
	609.293	0.902869	0.950194
	611.192	0.809751	0.899862
	613.091	0.609584	0.780759
	614.989	0.63602	0.797508
	616.888	0.176978	0.420687
	618.786	-0.229221	0.47877
	620.685	-0.338486	0.581795
	622.584	0.249987	0.499987
	624.482	0.744295	0.862725
	626.381	1.09453	1.0462
	628.279	1.33598	1.15584
	630.178	1.38328	1.17613
	632.077	1.65558	1.28669
	633.975	2.13665	1.46173
	635.874	2.40575	1.55105
	637.773	2.08148	1.44273
	639.671	1.8099	1.34533
	641.57	1.61713	1.27166
	643.468	1.97762	1.40628
	645.367	2.27245	1.50747
	647.266	2.82913	1.682
	649.164	3.6543	1.91162
	651.063	4.34855	2.08532
	652.962	5.94361	2.43795
	654.86	8.1292	2.85117
	656.759	12.1682	3.48829
	658.657	19.4483	4.41002
	660.556	32.1081	5.6664
	662.455	49.7047	7.05015
	664.353	68.3652	8.26832
	666.252	81.5578	9.03094
	668.15	83.6187	9.14433
	670.049	75.7782	8.70507
	671.948	60.7624	7.79502
	673.846	46.5059	6.81952
	675.745	35.7727	5.98103
	677.644	28.4883	5.33745
	679.542	24.1989	4.91923
	681.441	22.4595	4.73914
	683.339	23.183	4.81487
	685.238	26.3075	5.12909
	687.137	32.3826	5.69057
	689.035	41.855	6.46954
	690.934	54.3818	7.3744
	692.833	71.4907	8.45522
	694.731	91.9252	9.58776
	696.63	110.014	10.4887
	698.528	123.589	11.1171
	700.427	130.551	11.4259
	702.326	127.188	11.2778
	704.224	118.855	10.9021
	706.123	102.108	10.1048
	708.021	82.7248	9.09532
	709.92	60.2895	7.76463
	711.819	43.4093	6.58857
	713.717	28.3777	5.32707
	715.616	19.5428	4.42072
	717.515	14.2194	3.77086
	719.413	10.7768	3.2828
	721.312	8.48362	2.91267
	723.21	6.85988	2.61914
	725.109	5.34761	2.31249
	727.008	3.72838	1.9309
	728.906	3.13143	1.76958
	730.805	2.72724	1.65143
	732.704	2.99003	1.72917
	734.602	2.98296	1.72713
	736.501	2.8363	1.68413
	738.399	2.32338	1.52426
	740.298	1.98881	1.41025
	742.197	1.73439	1.31696
	744.095	1.66958	1.29212
	745.994	0.863335	0.929158
	747.892	0.786221	0.886691
	749.791	0.588183	0.766931
	751.69	0.362389	0.601987
	753.588	-0.182206	0.426855
	755.487	0.0367689	0.191752
	757.386	0.528902	0.727257
	759.284	0.756212	0.869604
	761.183	0.535198	0.731572
	763.081	0.476022	0.689943
	764.98	0.677207	0.822926
	766.879	0.998971	0.999485
	768.777	1.47847	1.21592
	770.676	1.51604	1.23127
	772.575	1.42236	1.19263
	774.473	1.19779	1.09443
	776.372	1.11373	1.05533
	778.27	0.935639	0.967284
	780.169	0.425065	0.65197
	782.068	0.183782	0.428698
	783.966	-0.0105893	0.102904
	785.865	0.231322	0.48096
	787.764	0.511083	0.714901
	789.662	0.735362	0.857533
	791.561	0.934133	0.966506
	793.459	1.40268	1.18435
	795.358	1.4364	1.1985
	797.257	1.44445	1.20185
	799.155	1.12474	1.06054
	801.054	0.725752	0.851911
	802.952	0.562423	0.749949
	804.851	0.318059	0.563967
	806.75	0.505004	0.710636
	808.648	0.41275	0.642456
	810.547	0.682176	0.82594
	812.446	0.720653	0.848913
	814.344	0.861004	0.927903
	816.243	0.689825	0.830557
	818.141	0.294009	0.542226
	820.04	0.270282	0.519886
	821.939	0.455102	0.674612
	823.837	0.828838	0.910406
	825.736	0.653255	0.808242
	827.635	0.463481	0.680794
	829.533	0.625113	0.790641
	831.432	0.857153	0.925826
	833.33	1.06448	1.03174
	835.229	0.350108	0.5917
	837.128	-0.187936	0.433516
	839.026	-0.124122	0.35231
	840.925	0.372378	0.610228
	842.823	0.945592	0.972416
	844.722	1.29221	1.13675
	846.621	1.08587	1.04205
	848.519	0.815184	0.902875
	850.418	0.319366	0.565125
	852.317	0.382628	0.618569
	854.215	0.393129	0.627
	856.114	0.687486	0.829148
	858.012	0.862628	0.928778
	859.911	0.774005	0.879776
	861.81	0.543909	0.737502
	863.708	0.40141	0.633569
	865.607	0.0791663	0.281365
	867.506	0.242477	0.49242
	869.404	0.0974674	0.312198
	871.303	0.0656832	0.256287
	873.201	-0.00243425	0.0493381
	875.1	0.119185	0.345232
	876.999	0.234878	0.484642
	878.897	0.0894502	0.299082
	880.796	-0.179022	0.423109
	882.694	-0.150483	0.387921
	884.593	0.0216283	0.147066
	886.492	0.304398	0.551723
	888.39	0.487874	0.69848
	890.289	0.0131741	0.114778
	892.188	-0.179476	0.423646
	894.086	-0.487615	0.698294
	895.985	0.0430161	0.207403
	897.883	0.314855	0.56112
	899.782	0.771891	0.878573
	901.681	0.921597	0.959998
	903.579	0.973511	0.986666
	905.478	1.77682	1.33297
	907.377	2.36211	1.53692
	909.275	3.58284	1.89284
	911.174	4.84649	2.20148
	913.072	6.35887	2.52168
	914.971	8.5424	2.92274
	916.87	11.2946	3.36075
	918.768	14.9936	3.87216
	920.667	19.8785	4.45853
	922.565	27.1676	5.21226
	924.464	36.9981	6.08261
	926.363	52.1061	7.21846
	928.261	74.6601	8.64061
	930.16	108.688	10.4253
	932.059	159.513	12.6299
	933.957	231.157	15.2039
	935.856	322.677	17.9632
	937.754	435.561	20.8701
	939.653	545.608	23.3583
	941.552	632.218	25.144
	943.45	713.522	26.7118
	945.349	768.717	27.7257
	947.248	836.577	28.9236
	949.146	889.114	29.818
	951.045	926.259	30.4345
	952.943	942.161	30.6946
	954.842	918.719	30.3104
	956.741	861.426	29.3501
	958.639	784.38	28.0068
	960.538	718.29	26.8009
	962.436	646.816	25.4326
	964.335	572.081	23.9182
	966.234	490.886	22.156
	968.132	407.549	20.1878
	970.031	335.187	18.3081
	971.93	271.954	16.491
	973.828	217.583	14.7507
	975.727	172.902	13.1492
	977.625	135.737	11.6506
	979.524	105.132	10.2534
	981.423	80.9108	8.99504
	983.321	63.2761	7.95463
	985.22	49.296	7.02111
	987.119	38.5334	6.20752
	989.017	29.6404	5.4443
	990.916	22.8403	4.77915
	992.814	17.1185	4.13745
	994.713	12.5038	3.53608
	996.612	8.65987	2.94277
	998.51	5.75407	2.39876
	1000.41	3.63083	1.90547
	1002.31	2.10841	1.45204
	1004.21	0.942839	0.970999
	1006.1	0.135125	0.367594
	1008	-0.131087	0.362059
	1009.9	-0.106807	0.326814
	1011.8	0.140877	0.375336
	1013.7	0.246108	0.496093
	1015.6	1.1311	1.06353
	1017.5	1.47906	1.21616
	1019.4	2.69694	1.64224
	1021.29	2.65479	1.62935
	1023.19	3.28587	1.8127
	1025.09	2.7756	1.66601
	1026.99	2.56274	1.60086
	1028.89	1.54827	1.24429
	1030.79	1.05602	1.02763
	1032.69	0.243885	0.493847
	1034.58	-0.191799	0.437948
	1036.48	-0.191652	0.437781
	1038.38	0.323913	0.569133
	1040.28	1.61272	1.26993
	1042.18	3.8856	1.97119
	1044.08	6.80243	2.60815
	1045.98	9.71813	3.11739
	1047.87	12.507	3.53653
	1049.77	15.0779	3.88303
	1051.67	16.7713	4.09528
	1053.57	18.6718	4.32108
	1055.47	20.4229	4.51917
	1057.37	21.6975	4.65805
	1059.27	23.2956	4.82655
	1061.16	25.4709	5.04687
	1063.06	27.6698	5.2602
	1064.96	31.0435	5.57167
	1066.86	34.2492	5.85228
	1068.76	37.2248	6.10121
	1070.66	40.3646	6.35332
	1072.56	44.826	6.69522
	1074.46	48.49	6.96347
	1076.35	52.1738	7.22314
	1078.25	54.324	7.37048
	1080.15	58.6005	7.6551
	1082.05	61.3546	7.83291
	1083.95	64.472	8.02945
	1085.85	67.0087	8.18588
	1087.75	70.1371	8.37479
	1089.64	71.3248	8.4454
	1091.54	72.9097	8.53872
	1093.44	73.1431	8.55237
	1095.34	72.9138	8.53896
	1097.24	72.8243	8.53371
	1099.14	71.9695	8.48348
	1101.04	69.8814	8.35951
	1102.93	67.4539	8.21303
	1104.83	63.8545	7.9909
	1106.73	60.244	7.7617
	1108.63	56.494	7.51625
	1110.53	52.8727	7.27136
	1112.43	48.8913	6.99223
	1114.33	45.2844	6.72937
	1116.22	42.8469	6.54575
	1118.12	39.8453	6.31231
	1120.02	38.1699	6.17818
	1121.92	35.3326	5.94412
	1123.82	32.6771	5.71639
	1125.72	29.0597	5.3907
	1127.62	26.2851	5.1269
	1129.51	22.4254	4.73555
	1131.41	19.1551	4.37666
	1133.31	15.4784	3.93426
	1135.21	12.8027	3.57809
	1137.11	10.3774	3.2214
	1139.01	8.44291	2.90567
	1140.91	6.99142	2.64413
	1142.81	5.52077	2.34963
	1144.7	4.83475	2.19881
	1146.6	5.00553	2.2373
	1148.5	5.38164	2.31984
	1150.4	5.83055	2.41465
	1152.3	5.3622	2.31564
	1154.2	4.56101	2.13565
	1156.1	3.42371	1.85033
	1157.99	2.08966	1.44557
	1159.89	1.01119	1.00558
	1161.79	0.255659	0.505627
	1163.69	-0.669854	0.818446
	1165.59	-1.6156	1.27106
	1167.49	-2.42748	1.55804
	1169.39	-2.55597	1.59874
	1171.28	-2.44731	1.56439
	1173.18	-2.03167	1.42537
	1175.08	-1.45421	1.20591
	1176.98	-0.575153	0.758389
	1178.88	0.120132	0.346601
	1180.78	0.99224	0.996113
	1182.68	1.94404	1.39429
	1184.57	3.53416	1.87993
	1186.47	4.29814	2.0732
	1188.37	4.95251	2.22542
	1190.27	4.40278	2.09828
	1192.17	4.72592	2.17392
	1194.07	4.63679	2.15332
	1195.97	4.66064	2.15885
	1197.87	5.3623	2.31566
	1199.76	5.4978	2.34474
	1201.66	6.89691	2.6262
	1203.56	7.29405	2.70075
	1205.46	9.43132	3.07104
	1207.36	10.6616	3.26521
	1209.26	12.4172	3.52381
	1211.16	14.5478	3.81416
	1213.05	16.4797	4.05952
	1214.95	20.0395	4.47655
	1216.85	22.9365	4.78921
	1218.75	27.9943	5.29097
	1220.65	31.4061	5.60412
	1222.55	36.9051	6.07495
	1224.45	40.9214	6.39698
	1226.34	45.5574	6.74962
	1228.24	48.6545	6.97528
	1230.14	50.7472	7.1237
	1232.04	52.7881	7.26554
	1233.94	52.937	7.27578
	1235.84	54.4753	7.38074
	1237.74	55.5546	7.45349
	1239.63	60.8456	7.80036
	1241.53	67.1503	8.19453
	1243.43	80.0295	8.94592
	1245.33	94.7256	9.73271
	1247.23	119.694	10.9405
	1249.13	161.193	12.6962
	1251.03	196.029	14.001
	1252.93	255.625	15.9883
	1254.82	290.576	17.0463
	1256.72	298.988	17.2913
	1258.62	268.396	16.3828
	1260.52	245.835	15.6791
	1262.42	212.45	14.5757
	1264.32	190.282	13.7943
	1266.22	172.32	13.1271
	1268.11	154.554	12.432
	1270.01	141.947	11.9142
	1271.91	127.95	11.3115
	1273.81	119.745	10.9428
	1275.71	109.922	10.4844
	1277.61	105.174	10.2554
	1279.51	99.3326	9.96658
	1281.4	98.0314	9.90108
	1283.3	95.487	9.77174
	1285.2	95.696	9.78243
	1287.1	95.4735	9.77105
	1289	96.1376	9.80498
	1290.9	97.4162	9.86996
	1292.8	98.5728	9.92838
	1294.69	99.4168	9.9708
	1296.59	100.828	10.0413
	1298.49	100.306	10.0153
	1300.39	100.526	10.0263
	1302.29	98.8616	9.94292
	1304.19	96.6059	9.82883
	1306.09	93.36	9.6623
	1307.99	90.8449	9.53126
	1309.88	86.0961	9.2788
	1311.78	83.1365	9.11792
	1313.68	78.3734	8.85287
	1315.58	74.1442	8.6107
	1317.48	70.2381	8.38082
	1319.38	65.609	8.09994
	1321.28	62.2356	7.88895
	1323.17	58.4896	7.64785
	1325.07	55.9906	7.48269
	1326.97	53.3434	7.30366
	1328.87	50.89	7.13373
	1330.77	49.9313	7.06621
	1332.67	48.9128	6.99377
	1334.57	49.3846	7.02742
	1336.46	49.3659	7.02608
	1338.36	50.3541	7.09606
	1340.26	50.5155	7.10743
	1342.16	49.1691	7.01207
	1344.06	45.7069	6.76069
	1345.96	39.1662	6.25829
	1347.86	32.0867	5.66451
	1349.75	24.0207	4.90109
	1351.65	17.4875	4.18181
	1353.55	11.5386	3.39686
	1355.45	6.92078	2.63074
	1357.35	3.20394	1.78996
	1359.25	0.736212	0.858028
	1361.15	-0.976583	0.988222
	1363.05	-1.86249	1.36473
	1364.94	-2.33916	1.52943
	1366.84	-2.25134	1.50045
	1368.74	-1.75978	1.32657
	1370.64	-1.32058	1.14917
	1372.54	-0.873267	0.934488
	1374.44	-0.180295	0.424611
	1376.34	0.539097	0.734233
	1378.23	0.741607	0.861166
	1380.13	1.2576	1.12143
	1382.03	2.3508	1.53323
	1383.93	4.20651	2.05098
	1385.83	5.58784	2.36386
	1387.73	6.61651	2.57226
	1389.63	7.96137	2.82159
	1391.52	9.60143	3.09862
	1393.42	11.2595	3.35551
	1395.32	11.9548	3.45757
	1397.22	12.6486	3.55648
	1399.12	12.4426	3.52741
	1401.02	11.6624	3.41503
	1402.92	10.8778	3.29815
	1404.81	10.0491	3.17003
	1406.71	9.22801	3.03776
	1408.61	7.65042	2.76594
	1410.51	6.29362	2.50871
	1412.41	4.94472	2.22367
	1414.31	4.10982	2.02727
	1416.21	3.43764	1.85409
	1418.11	2.95681	1.71954
	1420	2.30087	1.51686
	1421.9	1.55539	1.24715
	1423.8	1.21915	1.10415
	1425.7	0.525892	0.725184
	1427.6	0.237713	0.487559
	1429.5	-0.0254102	0.159406
	1431.4	0.0957324	0.309406
	1433.29	-0.213602	0.462171
	1435.19	-0.314654	0.56094
	1437.09	-0.345081	0.587436
	1438.99	-0.102518	0.320184
	1440.89	-0.264321	0.514121
	1442.79	-0.481039	0.69357
	1444.69	-0.64424	0.802645
	1446.58	-0.59926	0.774119
	1448.48	-0.526464	0.725579
	1450.38	-0.55927	0.747844
	1452.28	-0.667036	0.816723
	1454.18	-0.594974	0.771346
	1456.08	-0.581282	0.762418
	1457.98	-0.465173	0.682036
	1459.87	-0.332889	0.576966
	1461.77	-0.384127	0.61978
	1463.67	-0.1815	0.426028
	1465.57	0.12389	0.35198
	1467.47	0.37056	0.608736
	1469.37	0.578894	0.760851
	1471.27	0.564213	0.751141
	1473.17	0.899536	0.948439
	1475.06	1.04648	1.02298
	1476.96	1.20996	1.09998
	1478.86	1.94411	1.39431
	1480.76	2.53565	1.59237
	1482.66	2.90369	1.70402
	1484.56	2.96329	1.72142
	1486.46	3.0519	1.74697
	1488.35	2.94368	1.71572
	1490.25	2.91387	1.70701
	1492.15	2.66624	1.63286
	1494.05	1.9657	1.40203
	1495.95	1.46617	1.21085
	1497.85	1.1792	1.08591
	1499.75	1.00661	1.0033
	1501.64	0.777445	0.881729
	1503.54	0.810485	0.90027
	1505.44	0.726967	0.852624
	1507.34	0.485345	0.696667
	1509.24	0.0977546	0.312657
	1511.14	-0.0361251	0.190066
	1513.04	-0.462094	0.679775
	1514.93	-0.336394	0.579994
	1516.83	-0.163713	0.404615
	1518.73	0.30544	0.552666
	1520.63	0.288137	0.536784
	1522.53	0.0254698	0.159593
	1524.43	-0.173063	0.416009
	1526.33	-0.277684	0.526957
	1528.23	-0.435657	0.660043
	1530.12	0.254476	0.504456
	1532.02	0.35269	0.593877
	1533.92	0.676727	0.822634
	1535.82	0.789302	0.888427
	1537.72	0.669668	0.818333
	1539.62	0.57089	0.755572
	1541.52	0.531192	0.728829
	1543.41	1.16873	1.08108
	1545.31	1.53867	1.24043
	1547.21	1.47103	1.21286
	1549.11	1.2007	1.09576
	1551.01	1.20649	1.0984
	1552.91	1.80304	1.34277
	1554.81	2.09418	1.44713
	1556.7	2.33703	1.52874
	1558.6	2.42962	1.55872
	1560.5	2.64953	1.62774
	1562.4	2.55976	1.59993
	1564.3	2.49201	1.57861
	1566.2	2.8923	1.70068
	1568.1	3.29163	1.81428
	1569.99	3.72168	1.92917
	1571.89	3.74958	1.93638
	1573.79	3.74708	1.93574
	1575.69	3.84219	1.96015
	1577.59	4.54178	2.13115
	1579.49	4.92976	2.22031
	1581.39	4.91022	2.2159
	1583.29	4.83432	2.19871
	1585.18	5.07939	2.25375
	1587.08	5.46088	2.33685
	1588.98	5.72139	2.39194
	1590.88	6.29775	2.50953
	1592.78	6.77954	2.60375
	1594.68	7.33831	2.70893
	1596.58	8.32337	2.88502
	1598.47	9.6899	3.11286
	1600.37	11.2672	3.35667
	1602.27	12.7394	3.56923
	1604.17	14.2632	3.77666
	1606.07	16.0319	4.00398
	1607.97	17.8961	4.23038
	1609.87	20.3957	4.51616
	1611.76	22.6891	4.76331
	1613.66	24.2213	4.92152
	1615.56	24.6767	4.96756
	1617.46	24.5814	4.95796
	1619.36	23.7795	4.87642
	1621.26	22.2896	4.72119
	1623.16	20.2981	4.50534
	1625.05	18.5235	4.3039
	1626.95	16.8244	4.10176
	1628.85	15.704	3.96283
	1630.75	14.7413	3.83943
	1632.65	13.792	3.71375
	1634.55	12.8894	3.59019
	1636.45	11.8986	3.44943
	1638.34	10.9096	3.30297
	1640.24	10.1341	3.18341
	1642.14	9.30487	3.05039
	1644.04	8.74755	2.95763
	1645.94	8.21065	2.86542
	1647.84	8.11217	2.84819
	1649.74	7.49646	2.73797
	1651.64	6.81289	2.61015
	1653.53	6.27757	2.50551
	1655.43	6.29071	2.50813
	1657.33	6.13393	2.47668
	1659.23	6.05251	2.46019
	1661.13	6.01722	2.453
	1663.03	5.78925	2.40609
	1664.93	6.30472	2.51092
	1666.82	6.25378	2.50076
	1668.72	6.09929	2.46967
	1670.62	5.9133	2.43173
	1672.52	5.77642	2.40342
	1674.42	5.49813	2.34481
	1676.32	5.09097	2.25632
	1678.22	4.67691	2.16262
	1680.11	4.00044	2.00011
	1682.01	3.09397	1.75897
	1683.91	2.6931	1.64107
	1685.81	2.21856	1.48948
	1687.71	1.77702	1.33305
	1689.61	1.08956	1.04382
	1691.51	0.97224	0.986022
	1693.4	0.768724	0.876769
	1695.3	0.535571	0.731827
	1697.2	0.20304	0.4506
	1699.1	-0.0169027	0.130011
	1701	-0.156813	0.395997
	1702.9	-0.390418	0.624834
	1704.8	-0.374103	0.61164
	1706.7	-0.495269	0.703754
	1708.59	-0.284053	0.532966
	1710.49	-0.0979427	0.312958
	1712.39	-0.0168768	0.129911
	1714.29	-0.0397409	0.199351
	1716.19	0.0310482	0.176205
	1718.09	0.325963	0.570932
	1719.99	-0.0624598	0.24992
	1721.88	-0.402265	0.634244
	1723.78	-0.955518	0.977506
	1725.68	-0.696538	0.834588
	1727.58	-0.798129	0.893381
	1729.48	-0.503401	0.709507
	1731.38	-0.417386	0.646054
	1733.28	-0.177429	0.421223
	1735.17	-0.18255	0.427259
	1737.07	-0.236352	0.48616
	1738.97	-0.00127129	0.0356552
	1740.87	0.0379323	0.194762
	1742.77	0.559984	0.748321
	1744.67	0.584077	0.764249
	1746.57	1.5557	1.24728
	1748.46	2.37288	1.54042
	1750.36	3.46078	1.86032
	1752.26	4.48101	2.11684
	1754.16	5.13904	2.26694
	1756.06	5.74279	2.39641
	1757.96	6.27129	2.50426
	1759.86	7.99008	2.82667
	1761.76	10.3035	3.2099
	1763.65	12.8203	3.58054
	1765.55	16.3501	4.04352
	1767.45	20.7962	4.56029
	1769.35	26.9004	5.18656
	1771.25	33.8197	5.81547
	1773.15	42.1819	6.49476
	1775.05	52.4359	7.24127
	1776.94	66.2468	8.13922
	1778.84	84.1233	9.17188
	1780.74	105.685	10.2803
	1782.64	128.002	11.3138
	1784.54	151.766	12.3193
	1786.44	175.672	13.2541
	1788.34	199.592	14.1277
	1790.23	221.158	14.8714
	1792.13	235.755	15.3543
	1794.03	242.452	15.5709
	1795.93	238.789	15.4528
	1797.83	231.024	15.1995
	1799.73	222.016	14.9002
	1801.63	210.745	14.517
	1803.52	201.006	14.1777
	1805.42	186.04	13.6397
	1807.32	168.212	12.9696
	1809.22	146.396	12.0994
	1811.12	122.43	11.0648
	1813.02	99.5064	9.97529
	1814.92	80.5037	8.97238
	1816.82	63.5699	7.97307
	1818.71	52.9844	7.27904
	1820.61	43.3873	6.5869
	1822.51	36.3404	6.0283
	1824.41	30.9699	5.56506
	1826.31	27.8087	5.2734
	1828.21	25.0657	5.00657
	1830.11	22.1911	4.71074
	1832	19.8882	4.45962
	1833.9	17.4783	4.18071
	1835.8	15.9441	3.993
	1837.7	14.7457	3.84002
	1839.6	14.145	3.76098
	1841.5	13.2982	3.64667
	1843.4	12.8109	3.57924
	1845.29	12.9845	3.6034
	1847.19	12.8519	3.58496
	1849.09	13.2971	3.64652
	1850.99	13.5305	3.67838
	1852.89	14.8213	3.84984
	1854.79	15.8967	3.98707
	1856.69	17.3819	4.16916
	1858.58	18.6789	4.32191
	1860.48	20.3283	4.50869
	1862.38	22.2926	4.7215
	1864.28	24.327	4.93225
	1866.18	26.8345	5.1802
	1868.08	29.3022	5.41315
	1869.98	31.4111	5.60456
	1871.88	32.4716	5.69838
	1873.77	34.8165	5.90055
	1875.67	36.1179	6.00981
	1877.57	38.9142	6.23813
	1879.47	40.6065	6.37232
	1881.37	43.5654	6.60041
	1883.27	46.163	6.79434
	1885.17	48.6936	6.97808
	1887.06	50.3603	7.0965
	1888.96	51.7245	7.19197
	1890.86	52.0274	7.213
	1892.76	51.4008	7.16944
	1894.66	49.8115	7.05772
	1896.56	47.6323	6.90162
	1898.46	45.4494	6.74161
	1900.35	43.1688	6.5703
	1902.25	41.2182	6.42014
	1904.15	39.6655	6.29806
	1906.05	39.2668	6.26632
	1907.95	39.615	6.29405
	1909.85	40.9942	6.40267
	1911.75	43.2079	6.57327
	1913.64	45.5843	6.75162
	1915.54	47.1549	6.86694
	1917.44	46.9699	6.85346
	1919.34	45.8587	6.77191
	1921.24	43.1273	6.56714
	1923.14	39.2563	6.26548
	1925.04	33.272	5.76819
	1926.94	27.3226	5.22711
	1928.83	20.9037	4.57205
	1930.73	15.3882	3.92278
	1932.63	10.3992	3.22478
	1934.53	6.22852	2.4957
	1936.43	3.90075	1.97503
	1938.33	2.67028	1.6341
	1940.23	2.61478	1.61703
	1942.12	3.20417	1.79002
	1944.02	4.58051	2.14021
	1945.92	6.3532	2.52055
	1947.82	8.40723	2.89952
	1949.72	10.5611	3.24978
	1951.62	13.2075	3.63421
	1953.52	16.2471	4.03077
	1955.41	18.0835	4.25246
	1957.31	20.3044	4.50604
	1959.21	21.4055	4.62661
	1961.11	22.6573	4.75996
	1963.01	22.8651	4.78175
	1964.91	22.7537	4.77008
	1966.81	21.8336	4.67264
	1968.7	21.0118	4.58386
	1970.6	19.7448	4.44351
	1972.5	18.419	4.29174
	1974.4	16.9248	4.11398
	1976.3	15.5676	3.94558
	1978.2	14.2593	3.77615
	1980.1	12.5561	3.54346
	1982	10.9038	3.30209
	1983.89	9.02178	3.00363
	1985.79	8.26013	2.87404
	1987.69	6.85577	2.61835
	1989.59	6.21156	2.4923
	1991.49	4.88919	2.21115
	1993.39	3.91663	1.97905
	1995.29	3.03938	1.74338
	1997.18	2.87088	1.69437
	1999.08	2.4463	1.56407
	2000.98	1.9734	1.40478
	2002.88	1.87066	1.36772
	2004.78	1.94721	1.39542
	2006.68	2.48068	1.57502
	2008.58	2.09095	1.44601
	2010.47	2.49817	1.58056
	2012.37	2.53782	1.59305
	2014.27	2.83143	1.68269
	2016.17	2.66595	1.63277
	2018.07	3.13599	1.77087
	2019.97	3.32088	1.82233
	2021.87	3.54143	1.88187
	2023.76	3.8695	1.9671
	2025.66	4.37641	2.09199
	2027.56	5.12748	2.26439
	2029.46	5.66186	2.37947
	2031.36	6.9579	2.63778
	2033.26	7.82526	2.79737
	2035.16	8.41398	2.90069
	2037.06	8.64218	2.93976
	2038.95	9.17476	3.02899
	2040.85	9.92914	3.15105
	2042.75	10.4063	3.22589
	2044.65	10.8328	3.29132
	2046.55	11.5	3.39117
	2048.45	11.6531	3.41366
	2050.35	11.8672	3.44488
	2052.24	11.8824	3.44708
	2054.14	12.6202	3.55249
	2056.04	13.2982	3.64668
	2057.94	13.6445	3.69385
	2059.84	14.4141	3.79659
	2061.74	15.1361	3.89051
	2063.64	16.1977	4.02464
	2065.53	17.2675	4.15541
	2067.43	18.0862	4.25279
	2069.33	19.1841	4.37997
	2071.23	19.8756	4.45821
	2073.13	20.5451	4.53267
	2075.03	21.6942	4.6577
	2076.93	22.7884	4.77372
	2078.82	23.694	4.86765
	2080.72	24.7695	4.97689
	2082.62	25.7108	5.07058
	2084.52	27.1449	5.21008
	2086.42	27.7144	5.26445
	2088.32	28.4785	5.33652
	2090.22	29.292	5.4122
	2092.12	30.0302	5.47998
	2094.01	30.2458	5.49962
	2095.91	30.4842	5.52125
	2097.81	30.6355	5.53494
	2099.71	30.871	5.55616
	2101.61	30.6057	5.53224
	2103.51	30.6087	5.53251
	2105.41	30.2002	5.49547
	2107.3	29.6628	5.44636
	2109.2	28.7523	5.36211
	2111.1	27.5464	5.24847
	2113	25.757	5.07513
	2114.9	22.9074	4.78617
	2116.8	19.6011	4.42732
	2118.7	16.3266	4.04062
	2120.59	13.2184	3.63571
	2122.49	10.6826	3.26842
	2124.39	8.48134	2.91227
	2126.29	6.50734	2.55095
	2128.19	4.96086	2.2273
	2130.09	3.28658	1.81289
	2131.99	2.246	1.49867
	2133.88	1.05764	1.02842
	2135.78	0.262956	0.512792
	2137.68	-0.254173	0.504156
	2139.58	-0.0989396	0.314547
	2141.48	-0.131478	0.3626
	2143.38	-0.283914	0.532836
	2145.28	-0.4234	0.650692
	2147.17	0.13543	0.368008
	2149.07	1.51575	1.23116
	2150.97	3.3803	1.83856
	2152.87	5.9939	2.44824
	2154.77	9.96918	3.1574
	2156.67	15.7085	3.96339
	2158.57	22.7992	4.77485
	2160.47	30.3912	5.51282
	2162.36	37.5749	6.12983
	2164.26	44.1994	6.64826
	2166.16	50.1588	7.08229
	2168.06	56.7417	7.53271
	2169.96	63.8994	7.99371
	2171.86	70.4401	8.39286
	2173.76	73.6122	8.57975
	2175.65	71.9347	8.48143
	2177.55	65.7993	8.11168
	2179.45	56.7251	7.53161
	2181.35	46.6194	6.82784
	2183.25	37.2385	6.10234
	2185.15	29.3931	5.42154
	2187.05	23.4497	4.84249
	2188.94	19.2411	4.38647
	2190.84	16.5866	4.07266
	2192.74	14.9111	3.86149
	2194.64	13.739	3.70661
	2196.54	12.6401	3.5553
	2198.44	11.3376	3.36714
	2200.34	10.0249	3.1662
	2202.23	8.50466	2.91627
	2204.13	6.62945	2.57477
	2206.03	4.89401	2.21224
	2207.93	2.91617	1.70768
	2209.83	1.5707	1.25328
	2211.73	0.429273	0.655189
	2213.63	-0.00154072	0.0392519
	2215.53	-0.540812	0.735399
	2217.42	-0.709776	0.842482
	2219.32	-0.612691	0.782746
	2221.22	-0.500841	0.707701
	2223.12	-0.503232	0.709389
	2225.02	-0.363315	0.602756
	2226.92	-0.358241	0.598532
	2228.82	0.0172508	0.131342
	2230.71	0.143821	0.379238
	2232.61	0.193796	0.440223
	2234.51	-0.0225982	0.150327
	2236.41	-0.109447	0.330828
	2238.31	0.201179	0.44853
	2240.21	0.40543	0.636734
	2242.11	0.384657	0.620207
	2244	0.172531	0.415369
	2245.9	0.345	0.587367
	2247.8	0.36392	0.603258
	2249.7	0.293801	0.542034
	2251.6	0.19391	0.440353
	2253.5	0.189243	0.43502
	2255.4	0.373487	0.611136
	2257.29	0.517754	0.719551
	2259.19	0.375246	0.612573
	2261.09	0.518617	0.720151
	2262.99	0.521905	0.72243
	2264.89	0.595126	0.771444
	2266.79	0.497135	0.705078
	2268.69	0.320853	0.566439
	2270.59	0.302296	0.549815
	2272.48	0.319395	0.56515
	2274.38	0.275846	0.52521
	2276.28	0.107866	0.328429
	2278.18	-0.047687	0.218374
	2280.08	-0.0791804	0.28139
	2281.98	-0.112257	0.335048
	2283.88	0.0115354	0.107403
	2285.77	0.104378	0.323076
	2287.67	0.0205254	0.143267
	2289.57	-0.110951	0.333093
	2291.47	0.0452035	0.212611
	2293.37	0.221112	0.470225
	2295.27	0.0996669	0.315701
	2297.17	0.0129075	0.113611
	2299.06	-0.0732415	0.270632
	2300.96	-0.0101736	0.100864
	2302.86	0.0410723	0.202663
	2304.76	0.227729	0.47721
	2306.66	0.344281	0.586755
	2308.56	0.40296	0.634791
	2310.46	0.401567	0.633694
	2312.35	0.353217	0.594321
	2314.25	0.322831	0.568182
	2316.15	0.151428	0.389137
	2318.05	0.272138	0.521669
	2319.95	0.18625	0.431567
	2321.85	0.0897249	0.299541
	2323.75	0.0986389	0.314068
	2325.65	0.285344	0.534176
	2327.54	0.342675	0.585384
	2329.44	0.275049	0.524451
	2331.34	0.212273	0.460731
	2333.24	0.0381103	0.195219
	2335.14	-0.0178269	0.133518
	2337.04	-0.187772	0.433327
	2338.94	-0.263852	0.513666
	2340.83	-0.175926	0.419435
	2342.73	-0.112866	0.335955
	2344.63	0.304088	0.551442
	2346.53	0.341944	0.58476
	2348.43	0.469708	0.685352
	2350.33	0.3025	0.55
	2352.23	0.426891	0.653369
	2354.12	0.36563	0.604673
	2356.02	0.575663	0.758725
	2357.92	0.818196	0.904542
	2359.82	0.865101	0.930108
	2361.72	0.597683	0.7731
	2363.62	0.360442	0.600368
	2365.52	0.118604	0.344389
	2367.41	0.0734106	0.270944
	2369.31	-0.0425086	0.206176
	2371.21	-0.01714	0.13092
	2373.11	0.00259754	0.050966
	2375.01	0.12787	0.357589
	2376.91	0.299079	0.546881
	2378.81	0.461425	0.679282
	2380.71	0.399627	0.632161
	2382.6	0.392045	0.626135
	2384.5	0.197292	0.444176
	2386.4	0.230055	0.479641
	2388.3	-0.106208	0.325896
	2390.2	-0.0651234	0.255193
	2392.1	0.0551322	0.234802
	2394	0.273918	0.523372
	2395.89	0.119052	0.345039
	2397.79	-0.184443	0.429468
	2399.69	-0.0301897	0.173752
	2401.59	0.0949855	0.308197
	2403.49	0.246358	0.496344
	2405.39	0.249893	0.499893
	2407.29	0.164669	0.405794
	2409.18	0.133589	0.365498
	2411.08	-0.178427	0.422407
	2412.98	-0.214493	0.463134
	2414.88	-0.232546	0.48223
	2416.78	-0.0642427	0.253461
	2418.68	-0.0446068	0.211203
	2420.58	0.229963	0.479545
	2422.47	0.223283	0.472529
	2424.37	-0.186892	0.43231
