Wavelength(nm)  Intensity
690.49	2619.00
690.67	2618.00
690.84	2627.00
691.02	2629.00
691.19	2624.00
691.36	2635.00
691.54	2635.00
691.71	2647.00
691.89	2652.00
692.06	2652.00
692.24	2669.00
692.41	2671.00
692.59	2683.00
692.76	2688.00
692.93	2695.00
693.11	2707.00
693.28	2714.00
693.46	2735.00
693.63	2738.00
693.80	2744.00
693.98	2753.00
694.15	2751.00
694.33	2757.00
694.50	2778.00
694.67	2785.00
694.85	2790.00
695.02	2801.00
695.20	2812.00
695.37	2816.00
695.54	2825.00
695.72	2832.00
695.89	2849.00
696.07	2865.00
696.24	2871.00
696.41	2890.00
696.59	2895.00
696.76	2913.00
696.93	2922.00
697.11	2919.00
697.28	2943.00
697.45	2941.00
697.63	2949.00
697.80	2961.00
697.97	2963.00
698.15	2962.00
698.32	2976.00
698.49	2966.00
698.67	2970.00
698.84	2976.00
699.01	2986.00
699.19	3000.00
699.36	3011.00
699.53	3014.00
699.70	3023.00
699.88	3046.00
700.05	3037.00
700.22	3051.00
700.40	3053.00
700.57	3044.00
700.74	3043.00
700.91	3037.00
701.09	3046.00
701.26	3041.00
701.43	3036.00
701.60	3045.00
701.78	3045.00
701.95	3057.00
702.12	3033.00
702.29	3047.00
702.47	3055.00
702.64	3063.00
702.81	3048.00
702.98	3042.00
703.16	3051.00
703.33	3059.00
703.50	3069.00
703.67	3044.00
703.85	3057.00
704.02	3052.00
704.19	3053.00
704.36	3063.00
704.53	3050.00
704.71	3070.00
704.88	3063.00
705.05	3061.00
705.22	3059.00
705.39	3065.00
705.56	3072.00
705.74	3072.00
705.91	3079.00
706.08	3079.00
706.25	3087.00
706.42	3086.00
706.59	3103.00
706.77	3119.00
706.94	3131.00
707.11	3143.00
707.28	3149.00
707.45	3167.00
707.62	3176.00
707.80	3193.00
707.97	3220.00
708.14	3236.00
708.31	3289.00
708.48	3321.00
708.65	3374.00
708.82	3442.00
708.99	3505.00
709.16	3566.00
709.34	3598.00
709.51	3667.00
709.68	3742.00
709.85	3805.00
710.02	3868.00
710.19	3946.00
710.36	4010.00
710.53	4060.00
710.70	4113.00
710.87	4145.00
711.04	4192.00
711.22	4260.00
711.39	4285.00
711.56	4331.00
711.73	4357.00
711.90	4373.00
712.07	4413.00
712.24	4430.00
712.41	4440.00
712.58	4451.00
712.75	4465.00
712.92	4457.00
713.09	4458.00
713.26	4457.00
713.43	4475.00
713.60	4495.00
713.77	4530.00
713.94	4553.00
714.11	4522.00
714.28	4535.00
714.45	4581.00
714.62	4617.00
714.79	4667.00
714.96	4709.00
715.13	4766.00
715.30	4850.00
715.47	4903.00
715.64	5004.00
715.81	5085.00
715.98	5160.00
716.15	5234.00
716.32	5311.00
716.49	5351.00
716.66	5438.00
716.83	5529.00
717.00	5606.00
717.17	5678.00
717.34	5777.00
717.51	5824.00
717.68	5874.00
717.85	5912.00
718.02	5953.00
718.19	5949.00
718.35	6008.00
718.52	6033.00
718.69	6044.00
718.86	6037.00
719.03	6033.00
719.20	6021.00
719.37	5992.00
719.54	5975.00
719.71	5931.00
719.88	5898.00
720.05	5858.00
720.21	5806.00
720.38	5767.00
720.55	5729.00
720.72	5644.00
720.89	5595.00
721.06	5527.00
721.23	5475.00
721.40	5415.00
721.56	5357.00
721.73	5295.00
721.90	5243.00
722.07	5227.00
722.24	5199.00
722.41	5159.00
722.58	5126.00
722.74	5078.00
722.91	5035.00
723.08	4983.00
723.25	4918.00
723.42	4868.00
723.59	4831.00
723.75	4794.00
723.92	4753.00
724.09	4726.00
724.26	4711.00
724.43	4685.00
724.59	4652.00
724.76	4611.00
724.93	4608.00
725.10	4551.00
725.27	4547.00
725.43	4548.00
725.60	4510.00
725.77	4461.00
725.94	4436.00
726.10	4396.00
726.27	4384.00
726.44	4369.00
726.61	4321.00
726.78	4294.00
726.94	4260.00
727.11	4250.00
727.28	4241.00
727.45	4250.00
727.61	4207.00
727.78	4174.00
727.95	4174.00
728.11	4131.00
728.28	4138.00
728.45	4092.00
728.62	4073.00
728.78	4067.00
728.95	4083.00
729.12	4063.00
729.29	4039.00
729.45	4038.00
729.62	4051.00
729.79	4032.00
729.95	4054.00
730.12	4063.00
730.29	4073.00
730.45	4065.00
730.62	4023.00
730.79	4031.00
730.95	4041.00
731.12	4041.00
731.29	4046.00
731.45	4024.00
731.62	4018.00
731.79	4001.00
731.95	3985.00
732.12	3985.00
732.29	3968.00
732.45	3971.00
732.62	3961.00
732.79	3965.00
732.95	3958.00
733.12	3942.00
733.28	3969.00
733.45	3952.00
733.62	3979.00
733.78	3969.00
733.95	3957.00
734.12	3975.00
734.28	3979.00
734.45	3953.00
734.61	3959.00
734.78	3946.00
734.95	3938.00
735.11	3942.00
735.28	3922.00
735.44	3917.00
735.61	3917.00
735.77	3898.00
735.94	3884.00
736.11	3857.00
736.27	3845.00
736.44	3851.00
736.60	3847.00
736.77	3839.00
736.93	3838.00
737.10	3850.00
737.26	3828.00
737.43	3805.00
737.60	3804.00
737.76	3803.00
737.93	3791.00
738.09	3802.00
738.26	3791.00
738.42	3787.00
738.59	3773.00
738.75	3767.00
738.92	3771.00
739.08	3761.00
739.25	3756.00
739.41	3753.00
739.58	3756.00
739.74	3733.00
739.91	3718.00
740.07	3715.00
740.24	3723.00
740.40	3702.00
740.57	3698.00
740.73	3720.00
740.90	3685.00
741.06	3670.00
741.23	3667.00
741.39	3670.00
741.55	3653.00
741.72	3659.00
741.88	3655.00
742.05	3666.00
742.21	3657.00
742.38	3654.00
742.54	3649.00
742.71	3642.00
742.87	3639.00
743.03	3614.00
743.20	3617.00
743.36	3595.00
743.53	3594.00
743.69	3591.00
743.86	3588.00
744.02	3568.00
744.18	3549.00
744.35	3559.00
744.51	3531.00
744.67	3533.00
744.84	3530.00
745.00	3530.00
745.17	3520.00
745.33	3505.00
745.49	3525.00
745.66	3482.00
745.82	3512.00
745.99	3485.00
746.15	3485.00
746.31	3500.00
746.48	3501.00
746.64	3490.00
746.80	3503.00
746.97	3493.00
747.13	3512.00
747.29	3483.00
747.46	3489.00
747.62	3498.00
747.78	3467.00
747.95	3491.00
748.11	3478.00
748.27	3493.00
748.44	3484.00
748.60	3473.00
748.76	3476.00
748.92	3467.00
749.09	3453.00
749.25	3458.00
749.41	3441.00
749.58	3452.00
749.74	3429.00
749.90	3415.00
750.07	3407.00
750.23	3407.00
750.39	3416.00
750.55	3423.00
750.72	3413.00
750.88	3408.00
751.04	3390.00
751.20	3389.00
751.37	3378.00
751.53	3376.00
751.69	3373.00
751.85	3352.00
752.02	3355.00
752.18	3371.00
752.34	3380.00
752.50	3361.00
752.67	3355.00
752.83	3342.00
752.99	3339.00
753.15	3325.00
753.31	3325.00
753.48	3320.00
753.64	3309.00
753.80	3317.00
753.96	3301.00
754.12	3295.00
754.29	3286.00
754.45	3294.00
754.61	3273.00
754.77	3252.00
754.93	3259.00
755.09	3259.00
755.26	3262.00
755.42	3276.00
755.58	3270.00
755.74	3271.00
755.90	3247.00
756.06	3260.00
756.23	3260.00
756.39	3261.00
756.55	3256.00
756.71	3238.00
756.87	3248.00
757.03	3238.00
757.19	3229.00
757.36	3246.00
757.52	3251.00
757.68	3249.00
757.84	3250.00
758.00	3244.00
758.16	3246.00
758.32	3227.00
758.48	3231.00
758.64	3228.00
758.80	3222.00
758.97	3230.00
759.13	3220.00
759.29	3218.00
759.45	3220.00
759.61	3205.00
759.77	3224.00
759.93	3202.00
760.09	3203.00
760.25	3191.00
760.41	3179.00
760.57	3200.00
760.73	3160.00
760.89	3167.00
761.05	3163.00
761.21	3189.00
761.38	3163.00
761.54	3175.00
761.70	3176.00
761.86	3158.00
762.02	3159.00
762.18	3163.00
762.34	3161.00
762.50	3154.00
762.66	3151.00
762.82	3151.00
762.98	3139.00
763.14	3143.00
763.30	3155.00
763.46	3167.00
763.62	3183.00
763.78	3154.00
763.94	3137.00
764.10	3138.00
764.26	3130.00
764.42	3144.00
764.58	3132.00
764.74	3122.00
764.90	3143.00
765.05	3128.00
765.21	3136.00
765.37	3132.00
765.53	3146.00
765.69	3137.00
765.85	3146.00
766.01	3142.00
766.17	3141.00
766.33	3141.00
766.49	3141.00
766.65	3149.00
766.81	3151.00
766.97	3136.00
767.13	3129.00
767.29	3128.00
767.44	3127.00
767.60	3119.00
767.76	3122.00
767.92	3111.00
768.08	3127.00
768.24	3104.00
768.40	3109.00
768.56	3094.00
768.72	3095.00
768.88	3102.00
769.03	3081.00
769.19	3085.00
769.35	3090.00
769.51	3088.00
769.67	3091.00
769.83	3094.00
769.99	3086.00
770.14	3087.00
770.30	3072.00
770.46	3082.00
770.62	3092.00
770.78	3079.00
770.94	3073.00
771.09	3070.00
771.25	3057.00
771.41	3055.00
771.57	3062.00
771.73	3049.00
771.89	3053.00
772.04	3047.00
772.20	3040.00
772.36	3051.00
772.52	3048.00
772.68	3032.00
772.83	3036.00
772.99	3025.00
773.15	3031.00
773.31	3012.00
773.46	3010.00
773.62	3020.00
773.78	3016.00
773.94	3030.00
774.10	3019.00
774.25	3014.00
774.41	3013.00
774.57	3011.00
774.73	3017.00
774.88	3013.00
775.04	3014.00
775.20	3008.00
775.36	3003.00
775.51	3008.00
775.67	3022.00
775.83	3027.00
775.98	3024.00
776.14	3024.00
776.30	3013.00
776.46	3017.00
776.61	3005.00
776.77	3000.00
776.93	3003.00
777.08	2990.00
777.24	2993.00
777.40	2990.00
777.56	2997.00
777.71	2992.00
777.87	3003.00
778.03	2974.00
778.18	2992.00
778.34	2970.00
778.50	2979.00
778.65	2978.00
778.81	2972.00
778.97	2964.00
779.12	2976.00
779.28	2966.00
779.44	2967.00
779.59	2968.00
779.75	2962.00
779.90	2951.00
780.06	2952.00
780.22	2957.00
780.37	2964.00
780.53	2950.00
780.69	2952.00
780.84	2945.00
781.00	2972.00
781.15	2962.00
781.31	2942.00
781.47	2959.00
781.62	2955.00
781.78	2961.00
781.93	2954.00
782.09	2958.00
782.25	2946.00
782.40	2942.00
782.56	2946.00
782.71	2931.00
782.87	2940.00
783.02	2933.00
783.18	2941.00
783.34	2929.00
783.49	2930.00
783.65	2925.00
783.80	2924.00
783.96	2912.00
784.11	2924.00
784.27	2914.00
784.42	2919.00
784.58	2933.00
784.73	2917.00
784.89	2911.00
785.05	2920.00
785.20	2926.00
785.36	2909.00
785.51	2910.00
785.67	2908.00
785.82	2898.00
785.98	2907.00
786.13	2903.00
786.29	2891.00
786.44	2911.00
786.60	2899.00
786.75	2908.00
786.91	2916.00
787.06	2898.00
787.21	2899.00
787.37	2905.00
787.52	2893.00
787.68	2903.00
787.83	2901.00
787.99	2900.00
788.14	2915.00
788.30	2895.00
788.45	2903.00
788.61	2900.00
788.76	2901.00
788.91	2907.00
789.07	2893.00
789.22	2908.00
789.38	2887.00
789.53	2889.00
789.69	2887.00
789.84	2897.00
789.99	2885.00
790.15	2892.00
790.30	2896.00
790.46	2894.00
790.61	2894.00
790.76	2898.00
790.92	2889.00
791.07	2891.00
791.23	2898.00
791.38	2877.00
791.53	2887.00
791.69	2879.00
791.84	2890.00
791.99	2873.00
792.15	2873.00
792.30	2887.00
792.46	2874.00
792.61	2873.00
792.76	2860.00
792.92	2859.00
793.07	2858.00
793.22	2857.00
793.38	2859.00
793.53	2869.00
793.68	2858.00
793.84	2852.00
793.99	2855.00
794.14	2856.00
794.30	2844.00
794.45	2854.00
794.60	2865.00
794.75	2858.00
794.91	2869.00
795.06	2854.00
795.21	2848.00
795.37	2843.00
795.52	2861.00
795.67	2843.00
795.83	2851.00
795.98	2850.00
796.13	2846.00
796.28	2839.00
796.44	2844.00
796.59	2827.00
796.74	2829.00
796.89	2837.00
797.05	2835.00
797.20	2835.00
797.35	2827.00
797.50	2833.00
797.66	2848.00
797.81	2835.00
797.96	2845.00
798.11	2829.00
798.27	2842.00
798.42	2828.00
798.57	2950.00
798.72	2850.00
798.87	2841.00
799.03	2846.00
799.18	2841.00
799.33	2844.00
799.48	2840.00
799.63	2846.00
799.79	2833.00
799.94	2837.00
800.09	2843.00
800.24	2833.00
800.39	2840.00
800.54	2852.00
800.70	2841.00
800.85	2837.00
801.00	2831.00
801.15	2817.00
801.30	2830.00
801.45	2840.00
801.61	2835.00
801.76	2847.00
801.91	2846.00
802.06	2833.00
802.21	2848.00
802.36	2829.00
802.51	2841.00
802.67	2837.00
802.82	2845.00
802.97	2837.00
803.12	2849.00
803.27	2842.00
803.42	2843.00
803.57	2841.00
803.72	2839.00
803.87	2846.00
804.02	2845.00
804.18	2844.00
804.33	2846.00
804.48	2852.00
804.63	2843.00
804.78	2841.00
804.93	2844.00
805.08	2843.00
805.23	2845.00
805.38	2839.00
805.53	2848.00
805.68	2837.00
805.83	2834.00
805.98	2834.00
806.13	2833.00
806.28	2839.00
806.44	2830.00
806.59	2829.00
806.74	2839.00
806.89	2821.00
807.04	2826.00
807.19	2812.00
807.34	2818.00
807.49	2809.00
807.64	2816.00
807.79	2807.00
807.94	2798.00
808.09	2808.00
808.24	2805.00
808.39	2805.00
808.54	2805.00
808.69	2811.00
808.84	2808.00
808.99	2804.00
809.14	2801.00
809.29	2809.00
809.44	2814.00
809.58	2806.00
809.73	2803.00
809.88	2800.00
810.03	2816.00
810.18	2823.00
810.33	2833.00
810.48	2815.00
810.63	2818.00
810.78	2815.00
810.93	2809.00
811.08	2806.00
811.23	2819.00
811.38	2830.00
811.53	2876.00
811.68	2849.00
811.83	2831.00
811.97	2810.00
812.12	2800.00
812.27	2804.00
812.42	2797.00
812.57	2789.00
812.72	2778.00
812.87	2770.00
813.02	2776.00
813.17	2790.00
813.31	2788.00
813.46	2774.00
813.61	2787.00
813.76	2790.00
813.91	2792.00
814.06	2795.00
814.21	2788.00
814.35	2787.00
814.50	2785.00
814.65	2789.00
814.80	2789.00
814.95	2793.00
815.10	2803.00
815.25	2799.00
815.39	2793.00
815.54	2797.00
815.69	2791.00
815.84	2792.00
815.99	2792.00
816.13	2794.00
816.28	2783.00
816.43	2792.00
816.58	2781.00
816.73	2791.00
816.87	2778.00
817.02	2772.00
817.17	2780.00
817.32	2782.00
817.47	2785.00
817.61	2778.00
817.76	2785.00
817.91	2774.00
818.06	2774.00
818.20	2781.00
818.35	2790.00
818.50	2789.00
818.65	2788.00
818.79	2799.00
818.94	2795.00
819.09	2787.00
819.24	2788.00
819.38	2804.00
819.53	2789.00
819.68	2801.00
819.83	2783.00
819.97	2805.00
820.12	2797.00
820.27	2789.00
820.41	2794.00
820.56	2794.00
820.71	2802.00
820.86	2797.00
821.00	2803.00
821.15	2794.00
821.30	2790.00
821.44	2807.00
821.59	2799.00
821.74	2784.00
821.88	2782.00
822.03	2777.00
822.18	2785.00
822.32	2776.00
822.47	2779.00
822.62	2781.00
822.76	2775.00
822.91	2766.00
823.06	2754.00
823.20	2758.00
823.35	2768.00
823.49	2751.00
823.64	2754.00
823.79	2755.00
823.93	2751.00
824.08	2756.00
824.23	2761.00
824.37	2781.00
824.52	2759.00
824.66	2765.00
824.81	2774.00
824.96	2770.00
825.10	2765.00
825.25	2775.00
825.39	2771.00
825.54	2776.00
825.69	2772.00
825.83	2775.00
825.98	2773.00
826.12	2776.00
826.27	2779.00
826.41	2789.00
826.56	2784.00
826.71	2778.00
826.85	2776.00
827.00	2770.00
827.14	2760.00
827.29	2775.00
827.43	2763.00
827.58	2769.00
827.72	2772.00
827.87	2753.00
828.01	2757.00
828.16	2751.00
828.30	2757.00
828.45	2757.00
828.59	2760.00
828.74	2774.00
828.89	2756.00
829.03	2780.00
829.18	2770.00
829.32	2771.00
829.46	2780.00
829.61	2766.00
829.75	2773.00
829.90	2777.00
830.04	2771.00
830.19	2769.00
830.33	2761.00
830.48	2772.00
830.62	2760.00
830.77	2768.00
830.91	2778.00
831.06	2770.00
831.20	2767.00
831.35	2768.00
831.49	2768.00
831.63	2759.00
831.78	2759.00
831.92	2767.00
832.07	2759.00
832.21	2764.00
832.36	2757.00
832.50	2756.00
832.64	2754.00
832.79	2755.00
832.93	2751.00
833.08	2755.00
833.22	2755.00
833.36	2756.00
833.51	2747.00
833.65	2747.00
833.80	2757.00
833.94	2750.00
834.08	2745.00
834.23	2763.00
834.37	2755.00
834.51	2757.00
834.66	2752.00
834.80	2743.00
834.95	2753.00
835.09	2757.00
835.23	2760.00
835.38	2756.00
835.52	2762.00
835.66	2748.00
835.81	2755.00
835.95	2751.00
836.09	2749.00
836.24	2763.00
836.38	2755.00
836.52	2751.00
836.67	2745.00
836.81	2764.00
836.95	2752.00
837.10	2751.00
837.24	2742.00
837.38	2742.00
837.52	2735.00
837.67	2738.00
837.81	2729.00
837.95	2736.00
838.10	2737.00
838.24	2729.00
838.38	2731.00
838.52	2740.00
838.67	2726.00
838.81	2729.00
838.95	2740.00
839.09	2727.00
839.24	2734.00
839.38	2728.00
839.52	2731.00
839.66	2727.00
839.81	2739.00
839.95	2741.00
840.09	2737.00
840.23	2741.00
840.38	2743.00
840.52	2745.00
840.66	2743.00
840.80	2754.00
840.94	2751.00
841.09	2758.00
841.23	2743.00
841.37	2741.00
841.51	2746.00
841.65	2742.00
841.80	2736.00
841.94	2730.00
842.08	2732.00
842.22	2738.00
842.36	2751.00
842.50	2767.00
842.65	2757.00
842.79	2740.00
842.93	2736.00
843.07	2731.00
843.21	2730.00
843.35	2735.00
843.50	2721.00
843.64	2722.00
843.78	2719.00
843.92	2719.00
844.06	2719.00
844.20	2720.00
844.34	2719.00
844.48	2710.00
844.63	2725.00
844.77	2720.00
844.91	2715.00
845.05	2718.00
845.19	2725.00
845.33	2728.00
845.47	2739.00
845.61	2731.00
845.75	2734.00
845.90	2730.00
846.04	2728.00
846.18	2726.00
846.32	2719.00
846.46	2724.00
846.60	2729.00
846.74	2721.00
846.88	2721.00
847.02	2726.00
847.16	2732.00
847.30	2725.00
847.44	2719.00
847.58	2718.00
847.72	2729.00
847.86	2734.00
848.00	2725.00
848.14	2733.00
848.28	2736.00
848.42	2729.00
848.56	2734.00
848.70	2733.00
848.84	2729.00
848.99	2735.00
849.13	2732.00
849.27	2726.00
849.41	2711.00
849.54	2720.00
849.68	2724.00
849.82	2736.00
849.96	2741.00
850.10	2730.00
850.24	2733.00
850.38	2715.00
850.52	2715.00
850.66	2721.00
850.80	2708.00
850.94	2712.00
851.08	2740.00
851.22	2723.00
851.36	2722.00
851.50	2447.00
851.64	2424.00
851.78	2432.00
851.92	2434.00
852.06	2594.00
852.20	2602.00
852.34	2596.00
852.48	2601.00
852.61	2609.00
852.75	2603.00
852.89	2727.00
853.03	2710.00
853.17	2703.00
853.31	2707.00
853.45	2717.00
853.59	2717.00
853.73	2437.00
853.87	2438.00
854.00	2435.00
854.14	2430.00
