Generated file C:/Users/didvk/Downloads/Dioptas_Win64_0.5.0/1_mask&dat&fxye_1position/10_ReMoB2_530psi_noRuby_S_P1_C1_D1w_067.fxye using DIOPTAS
# == pyFAI calibration ==
# Distance Sample to Detector: 0.21643023575112377 m
# PONI: 8.848e-02, 8.638e-02 m
# Rotations: 0.008179 -0.001145 -0.000000 rad
# 
# == Fit2d calibration ==
# Distance Sample-beamCenter: 216.438 mm
# Center: x=491.896, y=512.970 pix
# Tilt: 0.473 deg  TiltPlanRot: -172.032 deg
# 
# Detector Pilatus CdTe 1M	 PixelSize= 1.720e-04, 1.720e-04 m
#    Detector has a mask: True 
#    Detector has a dark current: False 
#    detector has a flat field: False 
# 
# Wavelength: 4.133e-11 m
# Mask applied: None
# Dark current applied: None
# Flat field applied: None
# Polarization factor: None
# Normalization factor: None
BANK	1	1006	1006 CONS	293.393	1.90033 0.4133 0.0 FXYE
	293.393	0.672171	0.81986
	295.294	0.701586	0.837607
	297.194	0.903272	0.950406
	299.094	0.824961	0.908274
	300.995	0.495623	0.704005
	302.895	-0.197023	0.443872
	304.795	-0.133863	0.365873
	306.696	0.773595	0.879542
	308.596	1.3573	1.16503
	310.496	1.55242	1.24596
	312.397	1.62088	1.27314
	314.297	1.93924	1.39257
	316.197	2.02086	1.42157
	318.098	1.51053	1.22904
	319.998	1.1357	1.06569
	321.898	1.34799	1.16103
	323.799	1.57114	1.25345
	325.699	1.81496	1.3472
	327.599	1.66058	1.28864
	329.5	1.72532	1.31351
	331.4	2.10321	1.45025
	333.3	2.61982	1.61858
	335.201	3.35903	1.83276
	337.101	3.75885	1.93877
	339.001	4.02527	2.00631
	340.902	4.79742	2.1903
	342.802	5.59961	2.36635
	344.702	8.12699	2.85079
	346.603	11.5079	3.39232
	348.503	17.2985	4.15914
	350.403	22.1876	4.71038
	352.304	24.7846	4.97841
	354.204	23.319	4.82898
	356.104	18.5195	4.30343
	358.005	13.1216	3.62237
	359.905	8.64885	2.94089
	361.805	5.24894	2.29106
	363.706	3.99986	1.99997
	365.606	3.3169	1.82124
	367.506	2.74079	1.65553
	369.407	2.45052	1.56541
	371.307	2.06695	1.43769
	373.207	1.91559	1.38405
	375.108	1.34502	1.15975
	377.008	0.835831	0.914238
	378.908	0.914403	0.956244
	380.808	0.967657	0.983696
	382.709	1.03557	1.01763
	384.609	0.819707	0.905377
	386.509	0.611403	0.781922
	388.41	0.101791	0.319047
	390.31	0.523213	0.723335
	392.21	0.868841	0.932117
	394.111	1.44952	1.20396
	396.011	1.46436	1.21011
	397.911	1.39931	1.18293
	399.812	1.41382	1.18904
	401.712	1.39362	1.18051
	403.612	1.12288	1.05966
	405.513	0.656366	0.810164
	407.413	0.559674	0.748114
	409.313	0.992091	0.996038
	411.214	1.10073	1.04916
	413.114	0.68167	0.825633
	415.014	0.616469	0.785155
	416.915	0.92914	0.963919
	418.815	1.17225	1.0827
	420.715	1.11461	1.05575
	422.616	0.851059	0.922529
	424.516	0.630501	0.794041
	426.416	0.760161	0.871872
	428.317	0.57037	0.755228
	430.217	0.718373	0.847569
	432.117	0.554983	0.744972
	434.018	0.694929	0.833624
	435.918	0.346135	0.588332
	437.818	0.557443	0.746621
	439.719	0.69205	0.831895
	441.619	0.807661	0.8987
	443.519	0.443473	0.665938
	445.42	0.735583	0.857661
	447.32	0.71237	0.84402
	449.22	0.919809	0.959067
	451.121	1.33069	1.15355
	453.021	1.49933	1.22447
	454.921	1.04974	1.02457
	456.822	0.805661	0.897586
	458.722	0.926879	0.962746
	460.622	0.97582	0.987836
	462.523	0.245999	0.495983
	464.423	-0.232838	0.482533
	466.323	-0.307812	0.554808
	468.224	0.32498	0.57007
	470.124	0.348657	0.590472
	472.024	0.504849	0.710527
	473.924	0.782744	0.884728
	475.825	1.03432	1.01702
	477.725	1.48339	1.21795
	479.625	1.33129	1.15381
	481.526	1.24902	1.1176
	483.426	1.05529	1.02727
	485.326	0.809952	0.899973
	487.227	0.83951	0.916248
	489.127	0.998664	0.999332
	491.027	1.01116	1.00557
	492.928	1.11906	1.05786
	494.828	0.919098	0.958696
	496.728	0.504971	0.710613
	498.629	0.165735	0.407105
	500.529	0.0793447	0.281682
	502.429	0.220646	0.46973
	504.33	0.301268	0.548879
	506.23	0.142406	0.377368
	508.13	-0.0812472	0.285039
	510.031	0.484787	0.696267
	511.931	0.730627	0.854767
	513.831	1.08102	1.03972
	515.732	0.774784	0.880218
	517.632	0.468387	0.684388
	519.532	0.0840928	0.289988
	521.433	0.433759	0.658604
	523.333	0.512655	0.716
	525.233	0.7454	0.863366
	527.134	0.724399	0.851116
	529.034	0.812338	0.901298
	530.934	0.233481	0.483199
	532.835	0.457275	0.676221
	534.735	0.510594	0.714559
	536.635	0.282183	0.531209
	538.536	-0.0894168	0.299026
	540.436	-0.0543634	0.23316
	542.336	-0.0276005	0.166134
	544.237	-0.0245502	0.156685
	546.137	0.379446	0.615992
	548.037	0.670375	0.818764
	549.938	1.46817	1.21168
	551.838	0.831757	0.912007
	553.738	0.288725	0.537331
	555.639	0.110418	0.332292
	557.539	0.429732	0.65554
	559.439	0.73977	0.860099
	561.34	0.548793	0.740806
	563.24	0.52033	0.721339
	565.14	0.19252	0.438771
	567.041	0.0340527	0.184534
	568.941	0.0984806	0.313816
	570.841	-0.0580735	0.240984
	572.741	0.151405	0.389108
	574.642	0.811589	0.900882
	576.542	1.76337	1.32792
	578.442	2.89646	1.7019
	580.343	3.76394	1.94009
	582.243	4.29936	2.07349
	584.143	3.84867	1.9618
	586.044	3.35314	1.83116
	587.944	2.71949	1.64909
	589.844	2.13458	1.46102
	591.745	1.36992	1.17044
	593.645	1.05785	1.02852
	595.545	0.360533	0.600444
	597.446	0.470363	0.68583
	599.346	0.144566	0.380218
	601.246	-0.0279491	0.16718
	603.147	-0.339649	0.582794
	605.047	0.393551	0.627336
	606.947	0.673607	0.820736
	608.848	0.677302	0.822984
	610.748	0.19789	0.444849
	612.648	-0.0522878	0.228665
	614.549	0.0440336	0.209842
	616.449	0.298887	0.546706
	618.349	0.68654	0.828577
	620.25	0.781252	0.883885
	622.15	0.698396	0.835701
	624.05	0.588731	0.767288
	625.951	0.557122	0.746406
	627.851	0.692352	0.832077
	629.751	0.578326	0.760478
	631.652	0.567308	0.753199
	633.552	1.18338	1.08783
	635.452	2.07513	1.44053
	637.353	3.19018	1.78611
	639.253	4.95971	2.22704
	641.153	8.41332	2.90057
	643.054	12.1915	3.49163
	644.954	14.8732	3.85657
	646.854	14.4532	3.80174
	648.755	12.2796	3.50423
	650.655	8.27468	2.87657
	652.555	5.57048	2.36019
	654.456	3.35721	1.83227
	656.356	2.55306	1.59783
	658.256	2.13086	1.45975
	660.157	2.02581	1.42331
	662.057	1.84517	1.35837
	663.957	1.44721	1.203
	665.857	1.5981	1.26416
	667.758	2.78077	1.66756
	669.658	4.33946	2.08314
	671.558	5.76543	2.40113
	673.459	7.30928	2.70357
	675.359	8.7167	2.95241
	677.259	10.0068	3.16336
	679.16	10.8726	3.29737
	681.06	11.1842	3.34428
	682.96	10.8611	3.29562
	684.861	10.5024	3.24074
	686.761	10.5086	3.2417
	688.661	11.4123	3.37821
	690.562	13.396	3.66005
	692.462	16.6396	4.07916
	694.362	23.205	4.81716
	696.263	31.778	5.6372
	698.163	44.6177	6.67965
	700.063	58.3244	7.63704
	701.964	71.3787	8.44859
	703.864	80.1836	8.95453
	705.764	83.355	9.1299
	707.665	78.5085	8.8605
	709.565	70.0512	8.36966
	711.465	57.8666	7.60701
	713.366	45.1893	6.7223
	715.266	34.1703	5.84554
	717.166	25.4885	5.04862
	719.067	17.6721	4.20382
	720.967	13.0651	3.61457
	722.867	9.59888	3.09821
	724.768	8.1116	2.84809
	726.668	6.67577	2.58375
	728.568	5.08952	2.256
	730.469	3.98771	1.99692
	732.369	3.37819	1.83798
	734.269	2.86226	1.69182
	736.17	2.54925	1.59664
	738.07	1.89878	1.37796
	739.97	1.30918	1.1442
	741.871	1.00223	1.00111
	743.771	1.35705	1.16492
	745.671	1.34796	1.16102
	747.572	1.09445	1.04616
	749.472	0.758364	0.870841
	751.372	0.595651	0.771784
	753.273	0.212873	0.461382
	755.173	-0.104868	0.323833
	757.073	0.169529	0.411739
	758.973	0.67171	0.819579
	760.874	1.06065	1.02988
	762.774	1.02124	1.01057
	764.674	0.462933	0.680392
	766.575	-0.0313105	0.176948
	768.475	-0.242866	0.492814
	770.375	-0.132032	0.363362
	772.276	0.192141	0.438339
	774.176	0.398775	0.631486
	776.076	0.7635	0.873785
	777.977	0.787371	0.887339
	779.877	0.659261	0.811949
	781.777	0.505409	0.710921
	783.678	0.159265	0.399081
	785.578	0.0215866	0.146924
	787.478	0.335182	0.578949
	789.379	0.644844	0.803021
	791.279	0.985942	0.992946
	793.179	1.05742	1.02831
	795.08	0.947557	0.973425
	796.98	0.930847	0.964804
	798.88	0.727057	0.852676
	800.781	0.73623	0.858039
	802.681	1.16162	1.07778
	804.581	0.988907	0.994438
	806.482	0.772104	0.878694
	808.382	0.437965	0.661789
	810.282	0.388208	0.623063
	812.183	0.736157	0.857996
	814.083	0.819064	0.905021
	815.983	1.03352	1.01662
	817.884	1.09635	1.04707
	819.784	0.966893	0.983307
	821.684	0.78111	0.883804
	823.585	0.672977	0.820352
	825.485	0.946244	0.972751
	827.385	0.79088	0.889315
	829.286	0.490273	0.700195
	831.186	-0.0167573	0.12945
	833.086	-0.155992	0.394958
	834.987	-0.298287	0.546156
	836.887	-0.0712158	0.266863
	838.787	0.451309	0.671796
	840.688	0.904055	0.950818
	842.588	1.4856	1.21885
	844.488	1.21365	1.10166
	846.389	0.864744	0.929916
	848.289	0.649612	0.805985
	850.189	0.568302	0.753858
	852.089	0.49355	0.702531
	853.99	0.208079	0.456157
	855.89	0.260926	0.510809
	857.79	0.385761	0.621096
	859.691	0.258018	0.507955
	861.591	-0.149069	0.386095
	863.491	-0.0946203	0.307604
	865.392	-0.136784	0.369844
	867.292	-0.0252865	0.159017
	869.192	-0.206735	0.454682
	871.093	-0.118172	0.343762
	872.993	0.119801	0.346123
	874.893	0.27561	0.524986
	876.794	0.680153	0.824714
	878.694	0.901059	0.949241
	880.594	0.869885	0.932676
	882.495	0.80437	0.896867
	884.395	0.536108	0.732194
	886.295	0.182737	0.427477
	888.196	-0.171578	0.414219
	890.096	0.18267	0.4274
	891.996	0.580432	0.761861
	893.897	0.592819	0.769947
	895.797	0.719625	0.848307
	897.697	0.719353	0.848147
	899.598	0.573311	0.757173
	901.498	0.723861	0.8508
	903.398	1.47778	1.21564
	905.299	2.476	1.57353
	907.199	3.54032	1.88157
	909.099	4.69211	2.16613
	911	6.48054	2.54569
	912.9	8.65822	2.94248
	914.8	11.9447	3.45611
	916.701	15.9916	3.99895
	918.601	21.3454	4.62011
	920.501	27.5465	5.24847
	922.402	34.6566	5.88698
	924.302	42.3242	6.50571
	926.202	49.819	7.05826
	928.103	57.5644	7.58712
	930.003	64.9702	8.06041
	931.903	74.2383	8.61616
	933.804	83.914	9.16046
	935.704	94.7013	9.73146
	937.604	105.176	10.2556
	939.505	116.489	10.793
	941.405	131.302	11.4587
	943.305	149.342	12.2205
	945.206	172.823	13.1462
	947.106	203.491	14.265
	949.006	240.272	15.5007
	950.906	282.809	16.8169
	952.807	324.004	18.0001
	954.707	368.881	19.2063
	956.607	400.384	20.0096
	958.508	415.461	20.3829
	960.408	410.303	20.2559
	962.308	393.821	19.8449
	964.209	366.873	19.1539
	966.109	333.091	18.2508
	968.009	299.991	17.3203
	969.91	264.972	16.278
	971.81	237.93	15.425
	973.71	213.252	14.6032
	975.611	192.197	13.8635
	977.511	171.648	13.1014
	979.411	149.865	12.2419
	981.312	128.347	11.329
	983.212	107.117	10.3497
	985.112	86.9378	9.32404
	987.013	69.6199	8.34386
	988.913	54.9555	7.4132
	990.813	42.981	6.55599
	992.714	33.6368	5.79973
	994.614	26.0883	5.10767
	996.514	20.319	4.50766
	998.415	15.6929	3.96143
	1000.31	12.1859	3.49084
	1002.22	9.29039	3.04801
	1004.12	6.97454	2.64093
	1006.02	4.89915	2.2134
	1007.92	3.12328	1.76728
	1009.82	1.825	1.35093
	1011.72	1.35755	1.16514
	1013.62	1.18005	1.0863
	1015.52	0.555463	0.745294
	1017.42	-0.206853	0.454811
	1019.32	-0.633942	0.796205
	1021.22	-0.873104	0.934401
	1023.12	-0.902797	0.950156
	1025.02	-1.08711	1.04264
	1026.92	-0.77398	0.879762
	1028.82	-0.858039	0.926304
	1030.72	-0.620853	0.787943
	1032.62	-0.291892	0.54027
	1034.52	0.0941356	0.306815
	1036.42	0.41613	0.645081
	1038.32	0.647408	0.804616
	1040.22	1.0347	1.0172
	1042.12	1.1419	1.0686
	1044.02	1.35325	1.16329
	1045.92	1.82987	1.35273
	1047.82	2.43	1.55885
	1049.72	3.32778	1.82422
	1051.62	4.49477	2.12009
	1053.52	5.43818	2.33199
	1055.42	7.41262	2.72261
	1057.32	9.73702	3.12042
	1059.23	11.8881	3.44791
	1061.13	13.2973	3.64655
	1063.03	14.4529	3.80169
	1064.93	15.8202	3.97746
	1066.83	16.611	4.07566
	1068.73	17.0602	4.1304
	1070.63	17.3215	4.16191
	1072.53	17.9967	4.24225
	1074.43	18.8068	4.33668
	1076.33	18.6905	4.32325
	1078.23	18.6843	4.32254
	1080.13	18.186	4.26451
	1082.03	17.6439	4.20047
	1083.93	17.1146	4.13698
	1085.83	17.3	4.15932
	1087.73	17.9032	4.23121
	1089.63	18.5589	4.30801
	1091.53	19.68	4.43622
	1093.43	20.0589	4.47872
	1095.33	20.8777	4.56921
	1097.23	21.593	4.64682
	1099.13	22.8672	4.78197
	1101.03	24.5548	4.95528
	1102.93	26.31	5.12933
	1104.83	27.3539	5.23009
	1106.73	28.3657	5.32595
	1108.63	29.4954	5.43097
	1110.53	30.6474	5.53601
	1112.43	32.2955	5.68291
	1114.33	33.1961	5.76161
	1116.23	33.3384	5.77394
	1118.14	32.057	5.66189
	1120.04	31.075	5.5745
	1121.94	31.4954	5.61207
	1123.84	31.284	5.59321
	1125.74	31.1704	5.58305
	1127.64	30.5818	5.53008
	1129.54	29.9633	5.47388
	1131.44	30.5068	5.52329
	1133.34	31.423	5.60563
	1135.24	31.4774	5.61047
	1137.14	31.2222	5.58769
	1139.04	29.8741	5.46572
	1140.94	28.117	5.30255
	1142.84	24.8765	4.98764
	1144.74	21.5246	4.63946
	1146.64	17.3016	4.15952
	1148.54	14.5065	3.80874
	1150.44	11.8242	3.43863
	1152.34	9.2225	3.03686
	1154.24	7.33743	2.70877
	1156.14	5.43879	2.33212
	1158.04	4.16235	2.04018
	1159.94	3.14164	1.77247
	1161.84	2.63073	1.62195
	1163.74	2.64878	1.62751
	1165.64	2.75661	1.6603
	1167.54	2.16481	1.47133
	1169.44	1.59873	1.26441
	1171.34	1.24625	1.11635
	1173.24	0.942714	0.970935
	1175.15	0.763938	0.874036
	1177.05	0.303424	0.55084
	1178.95	-0.274969	0.524375
	1180.85	-0.595629	0.77177
	1182.75	-0.7784	0.88227
	1184.65	-0.914097	0.956084
	1186.55	-1.01105	1.00551
	1188.45	-1.05762	1.02841
	1190.35	-0.719621	0.848305
	1192.25	-0.77305	0.879233
	1194.15	-0.0784229	0.280041
	1196.05	0.927428	0.963031
	1197.95	2.46917	1.57136
	1199.85	4.01402	2.0035
	1201.75	5.65834	2.37873
	1203.65	8.12979	2.85128
	1205.55	10.9803	3.31366
	1207.45	15.701	3.96244
	1209.35	20.5225	4.53017
	1211.25	27.7077	5.26381
	1213.15	35.2624	5.93822
	1215.05	42.8074	6.54274
	1216.95	52.0034	7.21134
	1218.85	59.6955	7.72629
	1220.75	65.5942	8.09902
	1222.65	67.8674	8.23817
	1224.55	65.6889	8.10487
	1226.45	61.1081	7.81717
	1228.35	55.2597	7.43368
	1230.25	47.8717	6.91894
	1232.15	41.4515	6.43828
	1234.06	36.3277	6.02725
	1235.96	31.8103	5.64007
	1237.86	29.1403	5.39818
	1239.76	27.3545	5.23016
	1241.66	27.0569	5.20163
	1243.56	28.0969	5.30065
	1245.46	28.5208	5.34048
	1247.36	30.5567	5.52781
	1249.26	31.9092	5.64882
	1251.16	35.7855	5.9821
	1253.06	39.2454	6.26462
	1254.96	44.1484	6.64443
	1256.86	48.5081	6.96477
	1258.76	54.0421	7.35133
	1260.66	61.5243	7.84374
	1262.56	67.7492	8.23099
	1264.46	76.9993	8.77492
	1266.36	83.2116	9.12204
	1268.26	92.3664	9.61074
	1270.16	98.4498	9.92219
	1272.06	103.501	10.1735
	1273.96	104.718	10.2332
	1275.86	103.437	10.1704
	1277.76	97.9187	9.89539
	1279.66	90.7278	9.52511
	1281.56	80.5794	8.9766
	1283.46	70.8769	8.41884
	1285.36	62.2484	7.88977
	1287.26	53.1978	7.29368
	1289.16	48.7137	6.97952
	1291.06	44.1425	6.64398
	1292.97	41.3347	6.42921
	1294.87	38.2176	6.18204
	1296.77	36.5585	6.04637
	1298.67	35.1675	5.93022
	1300.57	34.4564	5.86996
	1302.47	33.8145	5.81503
	1304.37	33.3308	5.77328
	1306.27	32.6831	5.71691
	1308.17	31.9301	5.65067
	1310.07	31.462	5.6091
	1311.97	30.9489	5.56317
	1313.87	30.2558	5.50053
	1315.77	30.331	5.50736
	1317.67	30.0677	5.4834
	1319.57	29.7254	5.4521
	1321.47	28.9751	5.38286
	1323.37	28.3253	5.32215
	1325.27	28.2465	5.31475
	1327.17	28.0301	5.29435
	1329.07	27.9728	5.28893
	1330.97	27.8895	5.28105
	1332.87	27.6231	5.25577
	1334.77	27.2247	5.21773
	1336.67	27.2308	5.21831
	1338.57	27.3872	5.23328
	1340.47	27.3335	5.22815
	1342.37	27.5822	5.25188
	1344.27	28.4104	5.33014
	1346.17	29.542	5.43526
	1348.07	30.7668	5.54678
	1349.98	31.8614	5.64459
	1351.88	32.8611	5.73246
	1353.78	33.8808	5.82072
	1355.68	34.1972	5.84784
	1357.58	33.801	5.81386
	1359.48	32.1545	5.67049
	1361.38	29.5696	5.43779
	1363.28	25.7677	5.07619
	1365.18	21.0531	4.58836
	1367.08	16.3324	4.04133
	1368.98	12.2375	3.49821
	1370.88	8.47255	2.91076
	1372.78	5.74323	2.3965
	1374.68	3.72007	1.92875
	1376.58	2.59697	1.61151
	1378.48	1.5009	1.22511
	1380.38	0.451708	0.672093
	1382.28	-0.223876	0.473155
	1384.18	-0.578056	0.7603
	1386.08	-0.535728	0.731935
	1387.98	-0.422528	0.650022
	1389.88	0.231264	0.480899
	1391.78	0.574707	0.758094
	1393.68	0.93512	0.967016
	1395.58	1.18998	1.09086
	1397.48	1.74179	1.31977
	1399.38	2.1652	1.47146
	1401.28	2.39732	1.54833
	1403.18	2.47496	1.5732
	1405.08	2.93196	1.7123
	1406.98	3.55915	1.88657
	1408.89	4.06459	2.01608
	1410.79	4.96545	2.22833
	1412.69	6.1255	2.47497
	1414.59	7.25958	2.69436
	1416.49	8.25282	2.87277
	1418.39	8.72115	2.95316
	1420.29	9.35745	3.05899
	1422.19	10.1185	3.18096
	1424.09	11.1659	3.34155
	1425.99	12.3454	3.51361
	1427.89	13.0675	3.6149
	1429.79	14.2966	3.78108
	1431.69	14.7717	3.84339
	1433.59	15.2406	3.90391
	1435.49	13.887	3.72652
	1437.39	11.7174	3.42307
	1439.29	8.71655	2.95238
	1441.19	6.12662	2.4752
	1443.09	3.65843	1.9127
	1444.99	1.75958	1.32649
	1446.89	0.416909	0.645685
	1448.79	-0.400749	0.633048
	1450.69	-0.594711	0.771175
	1452.59	-0.605204	0.777948
	1454.49	-0.460059	0.678276
	1456.39	-0.64721	0.804494
	1458.29	-0.928062	0.96336
	1460.19	-0.749968	0.866007
	1462.09	-0.553554	0.744012
	1463.99	-0.313176	0.559622
	1465.89	-0.224875	0.47421
	1467.8	0.137832	0.371258
	1469.7	0.302966	0.550424
	1471.6	0.28322	0.532184
	1473.5	0.227538	0.47701
	1475.4	0.291995	0.540366
	1477.3	0.169412	0.411597
	1479.2	-0.00560112	0.0748406
	1481.1	0.447039	0.668609
	1483	0.687163	0.828953
	1484.9	0.800156	0.894514
	1486.8	0.54185	0.736105
	1488.7	0.170425	0.412825
	1490.6	0.602437	0.776168
	1492.5	0.835644	0.914135
	1494.4	0.863319	0.92915
	1496.3	0.255006	0.504981
	1498.2	0.0856638	0.292684
	1500.1	0.245807	0.495789
	1502	0.30214	0.549673
	1503.9	0.478854	0.691993
	1505.8	0.537213	0.732948
	1507.7	0.494321	0.70308
	1509.6	0.302398	0.549907
	1511.5	0.0537449	0.231829
	1513.4	0.253622	0.503609
	1515.3	0.612312	0.782504
	1517.2	0.919862	0.959094
	1519.1	0.687301	0.829036
	1521	0.654713	0.809143
	1522.9	0.56652	0.752675
	1524.81	0.253681	0.503668
	1526.71	0.230447	0.480049
	1528.61	-0.0139069	0.117928
	1530.51	-0.0762842	0.276196
	1532.41	-0.0555373	0.235664
	1534.31	0.245917	0.4959
	1536.21	0.408797	0.639372
	1538.11	0.418612	0.647002
	1540.01	0.379403	0.615957
	1541.91	0.220977	0.470082
	1543.81	-0.0375768	0.193847
	1545.71	0.0248452	0.157624
	1547.61	0.142614	0.377642
	1549.51	0.452832	0.672928
	1551.41	0.634508	0.79656
	1553.31	0.623921	0.789887
	1555.21	0.56842	0.753936
	1557.11	0.567978	0.753643
	1559.01	0.462649	0.680183
	1560.91	0.451119	0.671654
	1562.81	0.399505	0.632064
	1564.71	0.626526	0.791534
	1566.61	0.614379	0.783823
	1568.51	1.05241	1.02587
	1570.41	1.30714	1.1433
	1572.31	1.70267	1.30487
	1574.21	1.94111	1.39324
	1576.11	2.12836	1.45889
	1578.01	2.22731	1.49242
	1579.91	2.54114	1.5941
	1581.81	2.7413	1.65569
	1583.72	3.09191	1.75838
	1585.62	3.53237	1.87946
	1587.52	3.85218	1.9627
	1589.42	4.42956	2.10465
	1591.32	4.84832	2.20189
	1593.22	5.5469	2.35519
	1595.12	6.25789	2.50158
	1597.02	7.20306	2.68385
	1598.92	8.08117	2.84274
	1600.82	8.46574	2.9096
	1602.72	8.91397	2.98563
	1604.62	9.66054	3.10814
	1606.52	10.608	3.25699
	1608.42	11.5703	3.40151
	1610.32	12.0683	3.47395
	1612.22	13.1665	3.62857
	1614.12	14.1819	3.76588
	1616.02	15.4126	3.92588
	1617.92	16.1218	4.01519
	1619.82	17.1697	4.14363
	1621.72	18.1412	4.25925
	1623.62	19.2197	4.38402
	1625.52	20.0316	4.47567
	1627.42	20.6021	4.53895
	1629.32	20.9085	4.57258
	1631.22	21.0067	4.5833
	1633.12	21.1748	4.60161
	1635.02	21.4504	4.63145
	1636.92	22.224	4.71423
	1638.82	23.2605	4.82291
	1640.73	24.4631	4.94601
	1642.63	26.091	5.10794
	1644.53	27.3022	5.22515
	1646.43	28.4978	5.33833
	1648.33	29.3505	5.41761
	1650.23	30.2781	5.50255
	1652.13	30.7352	5.54393
	1654.03	30.5635	5.52843
	1655.93	30.1806	5.49368
	1657.83	29.3169	5.41451
	1659.73	28.1807	5.30855
	1661.63	26.3619	5.13439
	1663.53	24.4967	4.94941
	1665.43	22.3666	4.72933
	1667.33	19.9026	4.46123
	1669.23	17.3331	4.16331
	1671.13	15.1115	3.88735
	1673.03	13.2548	3.64071
	1674.93	11.8322	3.4398
	1676.83	10.1964	3.19319
	1678.73	8.66724	2.94402
	1680.63	7.69223	2.77349
	1682.53	6.84459	2.61622
	1684.43	6.23984	2.49797
	1686.33	5.35243	2.31353
	1688.23	4.85797	2.20408
	1690.13	4.31991	2.07844
	1692.03	3.61845	1.90222
	1693.93	3.31426	1.82051
	1695.83	3.32632	1.82382
	1697.73	3.27533	1.80979
	1699.64	3.04406	1.74472
	1701.54	2.57482	1.60463
	1703.44	2.32783	1.52572
	1705.34	2.04354	1.42953
	1707.24	2.03101	1.42514
	1709.14	1.68182	1.29685
	1711.04	1.46441	1.21013
	1712.94	1.4085	1.1868
	1714.84	1.82146	1.34961
	1716.74	1.70236	1.30475
	1718.64	1.66453	1.29017
	1720.54	1.43605	1.19835
	1722.44	1.58077	1.25729
	1724.34	1.7317	1.31594
	1726.24	1.77525	1.33238
	1728.14	1.86052	1.36401
	1730.04	1.68872	1.29951
	1731.94	1.79753	1.34072
	1733.84	1.5719	1.25376
	1735.74	1.79843	1.34106
	1737.64	2.19166	1.48043
	1739.54	2.55012	1.59691
	1741.44	2.79034	1.67043
	1743.34	2.53345	1.59168
	1745.24	2.96081	1.7207
	1747.14	2.94326	1.71559
	1749.04	3.09284	1.75865
	1750.94	3.11248	1.76422
	1752.84	3.92643	1.98152
	1754.74	4.22018	2.05431
	1756.64	4.69735	2.16734
	1758.55	4.78024	2.18638
	1760.45	5.4248	2.32912
	1762.35	6.05466	2.46062
	1764.25	6.72414	2.59309
	1766.15	7.17211	2.67808
	1768.05	7.89968	2.81064
	1769.95	8.78918	2.96465
	1771.85	10.1427	3.18476
	1773.75	11.5814	3.40314
	1775.65	12.7578	3.5718
	1777.55	14.2574	3.7759
	1779.45	15.971	3.99638
	1781.35	18.3553	4.28431
	1783.25	21.1692	4.601
	1785.15	24.127	4.91193
	1787.05	27.3775	5.23235
	1788.95	31.3274	5.59709
	1790.85	35.7693	5.98075
	1792.75	40.4024	6.35629
	1794.65	45.043	6.71141
	1796.55	49.3323	7.0237
	1798.45	53.2396	7.29655
	1800.35	56.0284	7.48521
	1802.25	58.4643	7.6462
	1804.15	60.0777	7.75098
	1806.05	61.3388	7.83191
	1807.95	61.8318	7.86332
	1809.85	61.3382	7.83187
	1811.75	60.4176	7.77287
	1813.65	58.0615	7.61981
	1815.56	55.3559	7.44016
	1817.46	52.54	7.24845
	1819.36	49.828	7.0589
	1821.26	46.7171	6.83499
	1823.16	43.3849	6.58672
	1825.06	39.6732	6.29866
	1826.96	36.1104	6.0092
	1828.86	32.3779	5.69016
	1830.76	28.8214	5.36855
	1832.66	25.598	5.05945
	1834.56	22.6844	4.76281
	1836.46	19.8616	4.45664
	1838.36	17.4716	4.1799
	1840.26	14.939	3.8651
	1842.16	13.0631	3.61429
	1844.06	11.385	3.37417
	1845.96	9.91695	3.14912
	1847.86	8.5165	2.9183
	1849.76	7.48031	2.73501
	1851.66	6.64474	2.57774
	1853.56	5.88771	2.42646
	1855.46	5.21179	2.28293
	1857.36	4.30433	2.07469
	1859.26	3.8537	1.96309
	1861.16	3.22264	1.79517
	1863.06	2.66719	1.63315
	1864.96	2.05671	1.43412
	1866.86	1.69169	1.30065
	1868.76	1.36196	1.16703
	1870.66	1.07186	1.03531
	1872.56	0.561154	0.749102
	1874.47	-0.0701542	0.264866
	1876.37	-0.0592537	0.243421
	1878.27	-0.0201729	0.142031
	1880.17	-0.0486533	0.220575
	1882.07	-0.199746	0.44693
	1883.97	-0.154443	0.392993
	1885.87	-0.164948	0.406138
	1887.77	0.0862353	0.293658
	1889.67	0.251714	0.501711
	1891.57	0.38546	0.620854
	1893.47	0.329711	0.574205
	1895.37	0.786106	0.886626
	1897.27	1.25758	1.12142
	1899.17	2.0674	1.43784
	1901.07	2.57323	1.60413
	1902.97	3.16538	1.77915
	1904.87	3.70563	1.925
	1906.77	4.01283	2.0032
	1908.67	4.15425	2.0382
	1910.57	4.14791	2.03664
	1912.47	4.10841	2.02692
	1914.37	4.36386	2.08899
	1916.27	4.42279	2.10304
	1918.17	4.3405	2.08339
	1920.07	4.00582	2.00146
	1921.97	3.78548	1.94563
	1923.87	3.61329	1.90086
	1925.77	3.07643	1.75398
	1927.67	2.40872	1.55201
	1929.57	1.87053	1.36767
	1931.48	1.51765	1.23193
	1933.38	1.20178	1.09626
	1935.28	0.594098	0.770778
	1937.18	0.191978	0.438153
	1939.08	-0.0587385	0.24236
	1940.98	-0.241524	0.491451
	1942.88	-0.491374	0.700981
	1944.78	-0.46707	0.683425
	1946.68	-0.452615	0.672767
	1948.58	-0.394577	0.628153
	1950.48	-0.413123	0.642746
	1952.38	-0.446242	0.668013
	1954.28	-0.305171	0.552423
	1956.18	-0.143141	0.37834
	1958.08	-0.122995	0.350706
	1959.98	-0.0386346	0.196557
	1961.88	0.212893	0.461404
	1963.78	0.512147	0.715644
	1965.68	0.633383	0.795853
	1967.58	0.754877	0.868837
	1969.48	0.733557	0.85648
	1971.38	1.07507	1.03685
	1973.28	1.46967	1.2123
	1975.18	2.27118	1.50704
	1977.08	2.66318	1.63193
	1978.98	3.05342	1.7474
	1980.88	3.2868	1.81295
	1982.78	3.86944	1.96709
	1984.68	4.04777	2.01191
	1986.58	4.73698	2.17646
	1988.48	5.21363	2.28334
	1990.39	5.68732	2.38481
	1992.29	6.03158	2.45593
	1994.19	6.39836	2.5295
	1996.09	6.4085	2.5315
	1997.99	6.21963	2.49392
	1999.89	6.02499	2.45459
	2001.79	5.95142	2.43955
	2003.69	5.40958	2.32585
	2005.59	4.81691	2.19475
	2007.49	4.20477	2.05055
	2009.39	3.6799	1.91831
	2011.29	3.03943	1.7434
	2013.19	2.40638	1.55125
	2015.09	2.18342	1.47764
	2016.99	2.17591	1.4751
	2018.89	1.88322	1.37231
	2020.79	1.50844	1.22819
	2022.69	1.33405	1.15501
	2024.59	1.36332	1.16761
	2026.49	1.36622	1.16885
	2028.39	1.28445	1.13333
	2030.29	1.11722	1.05699
	2032.19	0.85422	0.92424
	2034.09	0.748628	0.865233
	2035.99	0.710478	0.842899
	2037.89	0.632316	0.795183
	2039.79	0.673267	0.820528
	2041.69	0.752061	0.867215
	2043.59	0.912174	0.955078
	2045.49	0.835829	0.914237
	2047.39	0.583221	0.763689
	2049.3	0.30624	0.553389
	2051.2	-0.029226	0.170956
	2053.1	-0.124486	0.352825
	2055	0.130741	0.361581
	2056.9	0.55946	0.747971
	2058.8	0.541914	0.736148
	2060.7	0.540731	0.735344
	2062.6	0.369966	0.608249
	2064.5	0.41077	0.640913
	2066.4	0.463117	0.680527
	2068.3	0.233123	0.482828
	2070.2	0.202734	0.45026
	2072.1	0.106443	0.326256
	2074	0.0669167	0.258683
	2075.9	0.205367	0.453174
	2077.8	0.103342	0.321468
	2079.7	-0.0910232	0.301701
	2081.6	0.0891413	0.298565
	2083.5	0.244178	0.494143
	2085.4	0.337122	0.580622
	2087.3	0.292713	0.54103
	2089.2	0.330353	0.574764
	2091.1	0.17306	0.416004
	2093	0.0722145	0.268728
	2094.9	-0.0240718	0.155151
	2096.8	0.0816651	0.285771
	2098.7	0.285125	0.533971
	2100.6	0.210717	0.45904
	2102.5	0.222673	0.471883
	2104.4	0.16445	0.405524
	2106.31	0.290408	0.538895
	2108.21	0.433644	0.658517
	2110.11	0.450356	0.671086
	2112.01	0.395695	0.629043
	2113.91	0.491295	0.700925
	2115.81	0.278482	0.527714
	2117.71	0.207843	0.455898
	2119.61	0.142852	0.377958
	2121.51	0.240294	0.490198
	2123.41	2.87903e-05	0.00536566
	2125.31	0.184049	0.42901
	2127.21	0.489	0.699285
	2129.11	0.546408	0.739194
	2131.01	0.279999	0.529149
	2132.91	0.011739	0.108347
	2134.81	0.0932911	0.305436
	2136.71	0.104073	0.322603
	2138.61	-0.0118016	0.108635
	2140.51	0.041442	0.203573
	2142.41	-0.020991	0.144883
	2144.31	0.273989	0.523439
	2146.21	0.343448	0.586045
	2148.11	0.219952	0.468991
	2150.01	0.114038	0.337695
	2151.91	0.0241785	0.155494
	2153.81	0.187094	0.432544
	2155.71	0.00823063	0.0907228
	2157.61	-0.115531	0.339899
	2159.51	-0.029215	0.170924
	2161.41	0.122207	0.349581
	2163.31	0.0858738	0.293042
	2165.22	-0.0188247	0.137203
	2167.12	-0.0163925	0.128033
	2169.02	0.0738358	0.271727
	2170.92	-0.0215614	0.146838
	2172.82	-0.093347	0.305527
	2174.72	-0.0277702	0.166644
	2176.62	0.00918089	0.095817
	2178.52	0.0559086	0.23645
	2180.42	0.0622565	0.249513
	2182.32	0.0369988	0.192351
	2184.22	0.181148	0.425615
	2186.12	0.0501058	0.223843
	2188.02	-0.109061	0.330244
	2189.92	-0.226705	0.476136
	2191.82	-0.0354272	0.188221
	2193.72	-0.00744158	0.0862646
	2195.62	0.164401	0.405464
	2197.52	0.00485223	0.0696579
	2199.42	0.0231576	0.152176
	2201.32	-0.080416	0.283577
	2203.22	0.0252004	0.158746
