Generated file C:/Users/didvk/Downloads/Dioptas_Win64_0.5.0/1_mask&dat&fxye_1position/12_ReMoB2_575psi_noRuby_S_P1_C1_D1w_079.fxye using DIOPTAS
# == pyFAI calibration ==
# Distance Sample to Detector: 0.21643023575112377 m
# PONI: 8.848e-02, 8.638e-02 m
# Rotations: 0.008179 -0.001145 -0.000000 rad
# 
# == Fit2d calibration ==
# Distance Sample-beamCenter: 216.438 mm
# Center: x=491.896, y=512.970 pix
# Tilt: 0.473 deg  TiltPlanRot: -172.032 deg
# 
# Detector Pilatus CdTe 1M	 PixelSize= 1.720e-04, 1.720e-04 m
#    Detector has a mask: True 
#    Detector has a dark current: False 
#    detector has a flat field: False 
# 
# Wavelength: 4.133e-11 m
# Mask applied: None
# Dark current applied: None
# Flat field applied: None
# Polarization factor: None
# Normalization factor: None
BANK	1	1006	1006 CONS	293.393	1.90033 0.4133 0.0 FXYE
	293.393	0.326953	0.571798
	295.294	0.230275	0.47987
	297.194	0.666204	0.816213
	299.094	0.774748	0.880198
	300.995	0.957969	0.978759
	302.895	0.760729	0.872198
	304.795	0.809883	0.899935
	306.696	0.507896	0.712669
	308.596	0.670951	0.819116
	310.496	1.51922	1.23257
	312.397	1.43857	1.1994
	314.297	1.12904	1.06256
	316.197	0.731356	0.855193
	318.098	0.64062	0.800387
	319.998	0.526762	0.725784
	321.898	0.521406	0.722084
	323.799	0.077523	0.27843
	325.699	0.165217	0.406469
	327.599	0.419966	0.648047
	329.5	0.514017	0.71695
	331.4	1.1622	1.07805
	333.3	0.834274	0.913386
	335.201	0.666634	0.816476
	337.101	0.671192	0.819263
	339.001	1.71252	1.30863
	340.902	2.6773	1.63625
	342.802	3.06648	1.75114
	344.702	3.54374	1.88248
	346.603	4.88179	2.20948
	348.503	7.48406	2.7357
	350.403	10.0109	3.16401
	352.304	11.3959	3.37579
	354.204	11.3997	3.37635
	356.104	10.6233	3.25934
	358.005	9.0602	3.01002
	359.905	6.75258	2.59857
	361.805	4.54749	2.13249
	363.706	3.02754	1.73998
	365.606	1.79399	1.3394
	367.506	1.32236	1.14994
	369.407	1.59273	1.26203
	371.307	1.71993	1.31146
	373.207	2.14062	1.46309
	375.108	1.74385	1.32055
	377.008	1.61627	1.27132
	378.908	1.40618	1.18583
	380.808	0.824432	0.907982
	382.709	0.643708	0.802314
	384.609	0.66291	0.814193
	386.509	1.16911	1.08126
	388.41	1.18923	1.09052
	390.31	1.33231	1.15426
	392.21	0.241776	0.491708
	394.111	-0.000559711	0.0236582
	396.011	0.225056	0.4744
	397.911	1.11378	1.05536
	399.812	1.28371	1.13301
	401.712	1.14172	1.06851
	403.612	0.955678	0.977588
	405.513	0.582638	0.763307
	407.413	0.229405	0.478963
	409.313	-0.0473011	0.217488
	411.214	0.206907	0.454871
	413.114	0.0330565	0.181814
	415.014	-0.0764393	0.276477
	416.915	-0.000275443	0.0165965
	418.815	0.511725	0.71535
	420.715	0.711767	0.843663
	422.616	1.21103	1.10047
	424.516	1.21417	1.10189
	426.416	1.3249	1.15104
	428.317	1.14195	1.06862
	430.217	0.967923	0.983831
	432.117	0.965387	0.982541
	434.018	0.852488	0.923303
	435.918	1.28903	1.13536
	437.818	1.61313	1.27009
	439.719	1.54087	1.24132
	441.619	1.32564	1.15137
	443.519	1.1447	1.06991
	445.42	0.645949	0.80371
	447.32	0.185741	0.430977
	449.22	0.26087	0.510754
	451.121	0.120354	0.346921
	453.021	-0.153821	0.3922
	454.921	-0.0266449	0.163233
	456.822	0.502329	0.708751
	458.722	1.21904	1.1041
	460.622	1.33817	1.15679
	462.523	0.712397	0.844036
	464.423	0.131647	0.362832
	466.323	-0.0933562	0.305542
	468.224	0.181963	0.426571
	470.124	0.010485	0.102396
	472.024	0.361437	0.601196
	473.924	0.537106	0.732875
	475.825	0.71097	0.843191
	477.725	0.308763	0.555664
	479.625	0.0978869	0.312869
	481.526	0.238722	0.488592
	483.426	0.78054	0.883482
	485.326	0.970504	0.985142
	487.227	1.08918	1.04364
	489.127	0.712054	0.843833
	491.027	0.693361	0.832683
	492.928	0.328938	0.573532
	494.828	-0.00283485	0.0532433
	496.728	0.00331549	0.0575803
	498.629	0.506997	0.712037
	500.529	0.422502	0.650002
	502.429	-0.145288	0.381167
	504.33	-0.166448	0.407981
	506.23	0.179521	0.423699
	508.13	0.64229	0.80143
	510.031	0.872918	0.934301
	511.931	0.966133	0.982921
	513.831	1.02168	1.01078
	515.732	1.27068	1.12725
	517.632	1.24806	1.11717
	519.532	0.833819	0.913137
	521.433	0.633063	0.795652
	523.333	0.448997	0.670072
	525.233	0.617494	0.785808
	527.134	0.614178	0.783695
	529.034	0.942763	0.97096
	530.934	0.364304	0.603576
	532.835	0.1508	0.388329
	534.735	-0.117724	0.343109
	536.635	0.284904	0.533764
	538.536	0.529983	0.727999
	540.436	0.761087	0.872403
	542.336	0.70546	0.839917
	544.237	0.201053	0.448389
	546.137	0.143033	0.378197
	548.037	0.115166	0.339361
	549.938	0.150839	0.38838
	551.838	-0.0595855	0.244101
	553.738	0.0536402	0.231604
	555.639	0.344876	0.587262
	557.539	0.271195	0.520764
	559.439	0.22858	0.4781
	561.34	0.0838326	0.289539
	563.24	0.300613	0.548282
	565.14	0.767948	0.876326
	567.041	0.822984	0.907185
	568.941	0.406755	0.637774
	570.841	0.190741	0.43674
	572.741	0.561215	0.749143
	574.642	0.790193	0.888928
	576.542	0.85192	0.922995
	578.442	0.892417	0.944678
	580.343	1.43209	1.1967
	582.243	1.80463	1.34336
	584.143	1.95621	1.39865
	586.044	2.08445	1.44376
	587.944	2.54118	1.59411
	589.844	2.65297	1.62879
	591.745	2.35372	1.53418
	593.645	2.10398	1.45051
	595.545	1.96232	1.40083
	597.446	2.14341	1.46404
	599.346	1.80864	1.34486
	601.246	1.58113	1.25743
	603.147	1.17231	1.08273
	605.047	0.981138	0.990524
	606.947	0.731155	0.855076
	608.848	0.287099	0.535816
	610.748	0.074152	0.272309
	612.648	-0.0685458	0.261813
	614.549	-0.281984	0.531022
	616.449	-0.135816	0.368532
	618.349	0.21716	0.466004
	620.25	0.117337	0.342544
	622.15	-0.210342	0.458631
	624.05	-0.137238	0.370457
	625.951	0.320369	0.566011
	627.851	0.825252	0.908434
	629.751	0.847731	0.920723
	631.652	0.644675	0.802917
	633.552	0.950708	0.975043
	635.452	1.23375	1.11074
	637.353	1.28655	1.13426
	639.253	1.45827	1.20759
	641.153	1.92442	1.38723
	643.054	3.3327	1.82557
	644.954	4.66684	2.16029
	646.854	6.28861	2.50771
	648.755	6.60816	2.57063
	650.655	6.30795	2.51156
	652.555	5.84698	2.41805
	654.456	5.61524	2.36965
	656.356	5.43219	2.33071
	658.256	4.16856	2.04171
	660.157	2.92159	1.70927
	662.057	1.82694	1.35164
	663.957	1.42941	1.19558
	665.857	1.57235	1.25393
	667.758	1.54345	1.24236
	669.658	1.97339	1.40477
	671.558	2.95846	1.72002
	673.459	4.4728	2.1149
	675.359	6.45351	2.54038
	677.259	9.21538	3.03569
	679.16	12.2077	3.49395
	681.06	14.9277	3.86363
	682.96	17.5132	4.18488
	684.861	18.7422	4.32923
	686.761	18.7557	4.33078
	688.661	17.3688	4.16758
	690.562	15.9868	3.99835
	692.462	14.9149	3.86198
	694.362	14.9303	3.86397
	696.263	16.5998	4.07428
	698.163	19.8048	4.45026
	700.063	24.8122	4.98119
	701.964	30.8381	5.55321
	703.864	37.749	6.14402
	705.764	45.0177	6.70952
	707.665	50.3505	7.09581
	709.565	53.6254	7.32293
	711.465	52.5414	7.24855
	713.366	49.1473	7.01051
	715.266	43.3824	6.58653
	717.166	36.4526	6.0376
	719.067	29.101	5.39454
	720.967	22.7087	4.76537
	722.867	17.7823	4.21691
	724.768	13.9684	3.73743
	726.668	11.2721	3.3574
	728.568	8.7477	2.95765
	730.469	6.59931	2.56891
	732.369	5.48253	2.34148
	734.269	4.67852	2.16299
	736.17	4.21133	2.05215
	738.07	3.29114	1.81415
	739.97	2.42856	1.55838
	741.871	2.28629	1.51205
	743.771	2.39605	1.54792
	745.671	2.13175	1.46005
	747.572	1.39956	1.18303
	749.472	1.18852	1.09019
	751.372	0.877991	0.937012
	753.273	0.657814	0.811057
	755.173	0.422933	0.650333
	757.073	0.335743	0.579433
	758.973	0.346176	0.588367
	760.874	0.348047	0.589955
	762.774	0.285235	0.534074
	764.674	-0.0280906	0.167603
	766.575	-0.158662	0.398323
	768.475	-0.0115075	0.107273
	770.375	0.19928	0.446407
	772.276	0.148055	0.38478
	774.176	-0.179739	0.423957
	776.076	-0.0972599	0.311865
	777.977	0.0453235	0.212893
	779.877	0.945525	0.972381
	781.777	1.08203	1.04021
	783.678	0.850664	0.922315
	785.578	0.691648	0.831654
	787.478	0.879302	0.937711
	789.379	0.884421	0.940436
	791.279	0.951151	0.97527
	793.179	1.04725	1.02335
	795.08	1.27647	1.12981
	796.98	1.09212	1.04504
	798.88	0.861854	0.928361
	800.781	0.939132	0.969088
	802.681	1.18018	1.08636
	804.581	1.26948	1.12671
	806.482	0.949083	0.974209
	808.382	0.727894	0.853167
	810.282	0.353351	0.594433
	812.183	0.431256	0.656701
	814.083	0.339467	0.582638
	815.983	0.0540342	0.232453
	817.884	0.021457	0.146482
	819.784	-0.0180796	0.13446
	821.684	0.249982	0.499982
	823.585	0.38855	0.623338
	825.485	0.322916	0.568257
	827.385	0.18305	0.427844
	829.286	0.0601522	0.24526
	831.186	-0.0314069	0.17722
	833.086	-0.104765	0.323674
	834.987	-0.0948851	0.308034
	836.887	-0.103352	0.321484
	838.787	0.0222088	0.149026
	840.688	0.181909	0.426508
	842.588	0.530815	0.72857
	844.488	0.351879	0.593194
	846.389	0.209396	0.457598
	848.289	-0.0599607	0.244869
	850.189	0.208906	0.457062
	852.089	0.692186	0.831977
	853.99	1.02309	1.01148
	855.89	1.01455	1.00725
	857.79	0.662992	0.814243
	859.691	0.23625	0.486056
	861.591	0.180618	0.424991
	863.491	0.364807	0.603993
	865.392	0.30853	0.555455
	867.292	0.195395	0.442035
	869.192	-0.0131841	0.114822
	871.093	-0.235073	0.484843
	872.993	-0.128909	0.359039
	874.893	0.248296	0.498293
	876.794	0.261053	0.510934
	878.694	-0.0562876	0.23725
	880.594	-0.220351	0.469415
	882.495	-0.0924769	0.3041
	884.395	0.0277396	0.166552
	886.295	-0.151028	0.388624
	888.196	-0.431357	0.656778
	890.096	-0.293667	0.54191
	891.996	-0.0754833	0.274742
	893.897	0.205473	0.453291
	895.797	0.138196	0.371748
	897.697	0.162732	0.403401
	899.598	0.0355547	0.18856
	901.498	0.130328	0.36101
	903.398	0.201821	0.449245
	905.299	0.717463	0.847032
	907.199	1.25318	1.11945
	909.099	2.04886	1.43138
	911	2.65341	1.62893
	912.9	4.1205	2.0299
	914.8	5.98191	2.44579
	916.701	8.73612	2.95569
	918.601	11.5831	3.4034
	920.501	15.7011	3.96246
	922.402	22.1098	4.7021
	924.302	31.2923	5.59395
	926.202	42.7215	6.53617
	928.103	57.5234	7.58442
	930.003	76.0028	8.71796
	931.903	97.93	9.89596
	933.804	120.292	10.9678
	935.704	142.406	11.9334
	937.604	161.575	12.7112
	939.505	176.152	13.2722
	941.405	185.755	13.6292
	943.305	190.856	13.815
	945.206	192.204	13.8638
	947.106	191.85	13.851
	949.006	190.139	13.7891
	950.906	187.831	13.7051
	952.807	187.065	13.6772
	954.707	188.514	13.7301
	956.607	195.427	13.9795
	958.508	204.535	14.3016
	960.408	216.995	14.7308
	962.308	229.863	15.1612
	964.209	243.5	15.6045
	966.109	253.978	15.9367
	968.009	262.269	16.1947
	969.91	264.792	16.2724
	971.81	263.617	16.2363
	973.71	257.761	16.0549
	975.611	244.959	15.6512
	977.511	226.993	15.0663
	979.411	204.407	14.2971
	981.312	182.187	13.4977
	983.212	161.414	12.7049
	985.112	140.989	11.8739
	987.013	123.714	11.1227
	988.913	108.04	10.3942
	990.813	93.225	9.65531
	992.714	79.9022	8.9388
	994.614	67.6697	8.22616
	996.514	57.3131	7.57054
	998.415	48.1402	6.93831
	1000.31	40.0717	6.33022
	1002.22	33.2008	5.76202
	1004.12	27.208	5.21613
	1006.02	21.8064	4.66973
	1007.92	17.3693	4.16765
	1009.82	13.3156	3.64906
	1011.72	10.4115	3.22668
	1013.62	8.06481	2.83986
	1015.52	5.88072	2.42502
	1017.42	3.81456	1.95309
	1019.32	1.89519	1.37666
	1021.22	0.842834	0.91806
	1023.12	0.11128	0.333586
	1025.02	-0.434542	0.659198
	1026.92	-0.921612	0.960006
	1028.82	-1.07268	1.0357
	1030.72	0.0273557	0.165395
	1032.62	0.928812	0.963749
	1034.52	2.62856	1.62128
	1036.42	4.5337	2.12925
	1038.32	7.51327	2.74103
	1040.22	10.4596	3.23413
	1042.12	13.8592	3.72279
	1044.02	16.8277	4.10216
	1045.92	19.5839	4.42537
	1047.82	20.3348	4.50941
	1049.72	20.4143	4.51821
	1051.62	18.0821	4.25231
	1053.52	16.0058	4.00072
	1055.42	12.8429	3.58369
	1057.32	10.7763	3.28273
	1059.23	7.57537	2.75234
	1061.13	6.33165	2.51628
	1063.03	5.5127	2.34791
	1064.93	6.05779	2.46126
	1066.83	6.19976	2.48993
	1068.73	6.81494	2.61054
	1070.63	7.286	2.69926
	1072.53	8.6267	2.93712
	1074.43	10.1553	3.18674
	1076.33	10.9497	3.30903
	1078.23	12.1227	3.48177
	1080.13	12.925	3.59514
	1082.03	14.4076	3.79574
	1083.93	15.3119	3.91304
	1085.83	15.6917	3.96128
	1087.73	15.6883	3.96085
	1089.63	15.4617	3.93214
	1091.53	14.5261	3.81131
	1093.43	14.4095	3.79599
	1095.33	13.8356	3.71962
	1097.23	12.8647	3.58674
	1099.13	12.2421	3.49887
	1101.03	11.9576	3.45797
	1102.93	12.6962	3.56318
	1104.83	12.8579	3.58579
	1106.73	12.8775	3.58852
	1108.63	12.997	3.60514
	1110.53	13.5083	3.67537
	1112.43	14.3173	3.78382
	1114.33	15.2372	3.90349
	1116.23	15.6148	3.95155
	1118.14	15.7384	3.96717
	1120.04	16.4076	4.05062
	1121.94	17.4128	4.17286
	1123.84	17.7838	4.21709
	1125.74	17.4528	4.17765
	1127.64	16.9835	4.12111
	1129.54	16.4417	4.05484
	1131.44	15.9132	3.98914
	1133.34	14.6853	3.83214
	1135.24	13.6223	3.69084
	1137.14	12.5806	3.54691
	1139.04	11.4199	3.37933
	1140.94	10.3678	3.21991
	1142.84	9.51038	3.08389
	1144.74	9.21904	3.03629
	1146.64	8.66995	2.94448
	1148.54	7.89859	2.81044
	1150.44	6.88608	2.62413
	1152.34	5.77966	2.40409
	1154.24	5.23195	2.28735
	1156.14	4.49383	2.11987
	1158.04	3.87358	1.96814
	1159.94	3.2998	1.81654
	1161.84	2.53056	1.59077
	1163.74	1.93695	1.39174
	1165.64	1.00345	1.00172
	1167.54	0.188339	0.433981
	1169.44	-0.463109	0.680521
	1171.34	-0.953565	0.976507
	1173.24	-0.823015	0.907202
	1175.15	-0.606316	0.778663
	1177.05	-0.555657	0.745424
	1178.95	-0.926183	0.962384
	1180.85	-0.852996	0.923578
	1182.75	-0.456583	0.675709
	1184.65	0.22869	0.478216
	1186.55	0.626951	0.791803
	1188.45	1.14226	1.06876
	1190.35	1.41816	1.19087
	1192.25	1.69545	1.30209
	1194.15	2.23705	1.49568
	1196.05	3.50859	1.87312
	1197.95	4.79509	2.18977
	1199.85	6.15252	2.48043
	1201.75	8.30022	2.88101
	1203.65	11.2921	3.36037
	1205.55	15.4831	3.93486
	1207.45	20.8738	4.56879
	1209.35	27.5347	5.24735
	1211.25	36.9042	6.07489
	1213.15	49.0378	7.0027
	1215.05	64.6261	8.03904
	1216.95	84.6431	9.20017
	1218.85	106.38	10.3141
	1220.75	133.886	11.5709
	1222.65	162.429	12.7447
	1224.55	190.55	13.804
	1226.45	218.486	14.7813
	1228.35	235.4	15.3428
	1230.25	239.322	15.47
	1232.15	230.799	15.1921
	1234.06	212.832	14.5887
	1235.96	188.008	13.7116
	1237.86	162.81	12.7597
	1239.76	136.218	11.6712
	1241.66	111.048	10.5379
	1243.56	91.1043	9.54486
	1245.46	74.5949	8.63683
	1247.36	62.7984	7.92455
	1249.26	54.1193	7.35658
	1251.16	47.7301	6.9087
	1253.06	43.2933	6.57976
	1254.96	39.9442	6.32014
	1256.86	37.8495	6.15219
	1258.76	36.4636	6.03851
	1260.66	35.9313	5.99427
	1262.56	35.6241	5.96859
	1264.46	36.1118	6.00931
	1266.36	36.982	6.08128
	1268.26	38.5075	6.20544
	1270.16	40.8004	6.38752
	1272.06	43.1626	6.56982
	1273.96	45.8405	6.77056
	1275.86	47.8573	6.9179
	1277.76	49.836	7.05946
	1279.66	50.6587	7.11749
	1281.56	51.4672	7.17406
	1283.46	50.5515	7.10996
	1285.36	49.3625	7.02585
	1287.26	46.8255	6.84292
	1289.16	44.2254	6.65022
	1291.06	40.5518	6.36803
	1292.97	37.1865	6.09808
	1294.87	33.646	5.80052
	1296.77	30.5284	5.52525
	1298.67	28.207	5.31103
	1300.57	26.1324	5.11198
	1302.47	23.8955	4.8883
	1304.37	21.6854	4.65676
	1306.27	19.5835	4.42533
	1308.17	18.4653	4.29713
	1310.07	16.9912	4.12204
	1311.97	16.3862	4.04799
	1313.87	15.604	3.95019
	1315.77	15.0708	3.88211
	1317.67	14.8499	3.85355
	1319.57	14.651	3.82766
	1321.47	14.3123	3.78317
	1323.37	13.7652	3.71015
	1325.27	13.5236	3.67744
	1327.17	13.6141	3.68973
	1329.07	13.5599	3.68237
	1330.97	13.5205	3.67703
	1332.87	13.9088	3.72946
	1334.77	13.7836	3.71262
	1336.67	13.7776	3.71182
	1338.57	13.3631	3.65555
	1340.47	13.1301	3.62354
	1342.37	13.0439	3.61164
	1344.27	12.7738	3.57405
	1346.17	12.7675	3.57317
	1348.07	12.3913	3.52012
	1349.98	12.1966	3.49236
	1351.88	11.7248	3.42415
	1353.78	11.5846	3.40361
	1355.68	11.0933	3.33066
	1357.58	10.9369	3.30709
	1359.48	11.0037	3.31718
	1361.38	10.7832	3.28378
	1363.28	10.6603	3.26502
	1365.18	9.81099	3.13225
	1367.08	9.42026	3.06924
	1368.98	8.83082	2.97167
	1370.88	7.9094	2.81237
	1372.78	6.53023	2.55543
	1374.68	4.908	2.2154
	1376.58	3.75452	1.93766
	1378.48	2.88981	1.69994
	1380.38	2.04422	1.42976
	1382.28	0.926112	0.962347
	1384.18	0.414016	0.643441
	1386.08	0.351168	0.592594
	1387.98	0.426674	0.653203
	1389.88	0.635761	0.797346
	1391.78	0.788396	0.887917
	1393.68	1.44917	1.20381
	1395.58	2.56389	1.60121
	1397.48	3.56349	1.88772
	1399.38	4.27006	2.06641
	1401.28	4.40854	2.09965
	1403.18	5.10021	2.25836
	1405.08	5.59979	2.36639
	1406.98	6.1396	2.47782
	1408.89	6.34985	2.51989
	1410.79	6.53067	2.55552
	1412.69	6.82307	2.6121
	1414.59	7.43351	2.72645
	1416.49	7.45383	2.73017
	1418.39	7.58693	2.75444
	1420.29	6.74529	2.59717
	1422.19	6.7674	2.60142
	1424.09	6.90162	2.62709
	1425.99	7.02346	2.65018
	1427.89	6.57963	2.56508
	1429.79	6.00458	2.45042
	1431.69	5.74648	2.39718
	1433.59	5.59841	2.3661
	1435.49	5.1201	2.26276
	1437.39	4.44978	2.10945
	1439.29	4.02554	2.00637
	1441.19	3.52018	1.87621
	1443.09	2.71214	1.64686
	1444.99	1.84207	1.35723
	1446.89	1.17332	1.0832
	1448.79	0.426321	0.652933
	1450.69	-0.0800255	0.282888
	1452.59	-0.311094	0.557758
	1454.49	-0.425124	0.652016
	1456.39	-0.652456	0.807747
	1458.29	-0.734541	0.857054
	1460.19	-0.63398	0.796229
	1462.09	-0.610113	0.781097
	1463.99	-0.659828	0.812298
	1465.89	-0.473574	0.688167
	1467.8	-0.206306	0.45421
	1469.7	-0.157835	0.397285
	1471.6	-0.357188	0.597652
	1473.5	-0.435491	0.659918
	1475.4	-0.339213	0.58242
	1477.3	0.0158609	0.12594
	1479.2	0.503412	0.709516
	1481.1	0.516801	0.718889
	1483	0.487692	0.69835
	1484.9	0.262504	0.512352
	1486.8	0.396597	0.629759
	1488.7	0.408265	0.638956
	1490.6	0.414787	0.64404
	1492.5	0.291887	0.540266
	1494.4	0.468689	0.684608
	1496.3	0.328604	0.57324
	1498.2	0.148389	0.385213
	1500.1	0.0258894	0.160902
	1502	-0.0704797	0.26548
	1503.9	0.305627	0.552836
	1505.8	0.581351	0.762464
	1507.7	0.697535	0.835186
	1509.6	0.755472	0.869179
	1511.5	0.570468	0.755293
	1513.4	0.603015	0.77654
	1515.3	0.370355	0.608568
	1517.2	0.509185	0.713572
	1519.1	0.3195	0.565243
	1521	0.427958	0.654185
	1522.9	0.6001	0.774661
	1524.81	0.802146	0.895626
	1526.71	0.677193	0.822918
	1528.61	0.519102	0.720487
	1530.51	0.145178	0.381022
	1532.41	0.111122	0.33335
	1534.31	0.406706	0.637735
	1536.21	0.575496	0.758614
	1538.11	0.561847	0.749565
	1540.01	0.584855	0.764758
	1541.91	0.737338	0.858684
	1543.81	0.717662	0.84715
	1545.71	0.496387	0.704547
	1547.61	0.25193	0.501926
	1549.51	0.363508	0.602916
	1551.41	0.704605	0.839407
	1553.31	0.557589	0.746718
	1555.21	0.22713	0.476581
	1557.11	0.00542756	0.0736719
	1559.01	0.0408637	0.202148
	1560.91	0.0869671	0.294902
	1562.81	-0.0106774	0.103331
	1564.71	0.0772972	0.278024
	1566.61	-0.13671	0.369743
	1568.51	-0.0692337	0.263123
	1570.41	0.302376	0.549888
	1572.31	0.574327	0.757844
	1574.21	0.89348	0.945241
	1576.11	1.00324	1.00162
	1578.01	1.26742	1.1258
	1579.91	1.30194	1.14102
	1581.81	1.46734	1.21134
	1583.72	1.36424	1.16801
	1585.62	1.51208	1.22966
	1587.52	1.66944	1.29207
	1589.42	2.11306	1.45364
	1591.32	2.53171	1.59113
	1593.22	2.87502	1.69559
	1595.12	3.21495	1.79303
	1597.02	3.30445	1.81782
	1598.92	3.93099	1.98267
	1600.82	4.67144	2.16135
	1602.72	5.19788	2.27989
	1604.62	5.49952	2.34511
	1606.52	6.42873	2.53549
	1608.42	7.63105	2.76244
	1610.32	8.59878	2.93237
	1612.22	9.56247	3.09232
	1614.12	10.5005	3.24045
	1616.02	11.2153	3.34892
	1617.92	12.2357	3.49796
	1619.82	13.3662	3.65598
	1621.72	14.5309	3.81194
	1623.62	15.6261	3.95299
	1625.52	16.8832	4.10892
	1627.42	18.2252	4.26909
	1629.32	19.3848	4.40282
	1631.22	20.3737	4.51372
	1633.12	21.4881	4.63552
	1635.02	22.3338	4.72587
	1636.92	22.9198	4.78746
	1638.82	23.3623	4.83346
	1640.73	24.4285	4.94252
	1642.63	25.4395	5.04376
	1644.53	26.1824	5.11687
	1646.43	26.2511	5.12358
	1648.33	26.4748	5.14536
	1650.23	26.5338	5.1511
	1652.13	26.5037	5.14817
	1654.03	26.5866	5.15622
	1655.93	26.8142	5.17825
	1657.83	26.7257	5.16969
	1659.73	26.3985	5.13795
	1661.63	25.9076	5.08995
	1663.53	25.4567	5.04547
	1665.43	24.9202	4.99201
	1667.33	24.4835	4.94808
	1669.23	23.6954	4.86779
	1671.13	22.9727	4.79299
	1673.03	21.9623	4.68639
	1674.93	20.9907	4.58156
	1676.83	19.3736	4.40155
	1678.73	17.5559	4.18998
	1680.63	15.6087	3.95079
	1682.53	13.9894	3.74024
	1684.43	12.3265	3.51091
	1686.33	10.7936	3.28536
	1688.23	9.5092	3.0837
	1690.13	8.19856	2.86331
	1692.03	7.35473	2.71196
	1693.93	6.45149	2.53998
	1695.83	5.6118	2.36892
	1697.73	4.82325	2.19619
	1699.64	4.20418	2.05041
	1701.54	3.66374	1.91409
	1703.44	3.29991	1.81657
	1705.34	2.88058	1.69723
	1707.24	2.65321	1.62887
	1709.14	2.7256	1.65094
	1711.04	2.84129	1.68561
	1712.94	2.86036	1.69126
	1714.84	2.5137	1.58547
	1716.74	2.48618	1.57676
	1718.64	2.16185	1.47032
	1720.54	2.00227	1.41502
	1722.44	2.06057	1.43547
	1724.34	2.44867	1.56482
	1726.24	2.76134	1.66173
	1728.14	2.75984	1.66128
	1730.04	2.55653	1.59892
	1731.94	2.51686	1.58646
	1733.84	2.4059	1.5511
	1735.74	2.23847	1.49615
	1737.64	1.92214	1.38641
	1739.54	2.00802	1.41705
	1741.44	2.16857	1.47261
	1743.34	2.12486	1.45769
	1745.24	1.92742	1.38832
	1747.14	2.33104	1.52677
	1749.04	2.67872	1.63668
	1750.94	2.70914	1.64595
	1752.84	2.66636	1.6329
	1754.74	2.44019	1.56211
	1756.64	2.49185	1.57856
	1758.55	2.93375	1.71282
	1760.45	3.59704	1.89659
	1762.35	3.73108	1.9316
	1764.25	3.68502	1.91964
	1766.15	3.92008	1.97992
	1768.05	4.34772	2.08512
	1769.95	4.46217	2.11238
	1771.85	4.91709	2.21745
	1773.75	5.48028	2.341
	1775.65	6.32294	2.51455
	1777.55	6.98451	2.64282
	1779.45	7.47203	2.7335
	1781.35	7.98308	2.82543
	1783.25	8.96237	2.99372
	1785.15	9.97085	3.15766
	1787.05	10.867	3.29652
	1788.95	11.8791	3.44661
	1790.85	13.4109	3.66209
	1792.75	15.0348	3.87748
	1794.65	16.8384	4.10347
	1796.55	18.5847	4.31099
	1798.45	20.7442	4.55458
	1800.35	23.0733	4.80347
	1802.25	26.0677	5.10565
	1804.15	29.1672	5.40067
	1806.05	32.7182	5.71998
	1807.95	36.5311	6.0441
	1809.85	40.382	6.35469
	1811.75	43.9974	6.63305
	1813.65	47.5548	6.896
	1815.56	51.4045	7.16969
	1817.46	55.0239	7.41781
	1819.36	57.627	7.59125
	1821.26	58.7775	7.66665
	1823.16	59.1483	7.69079
	1825.06	58.4178	7.64315
	1826.96	56.9084	7.54377
	1828.86	54.4399	7.37834
	1830.76	51.3278	7.16434
	1832.66	48.071	6.93332
	1834.56	44.8809	6.69932
	1836.46	41.5642	6.44703
	1838.36	37.9708	6.16205
	1840.26	34.366	5.86226
	1842.16	30.9852	5.56643
	1844.06	27.9027	5.2823
	1845.96	25.1437	5.01435
	1847.86	22.3153	4.72391
	1849.76	19.5063	4.4166
	1851.66	16.908	4.11193
	1853.56	14.7417	3.8395
	1855.46	12.7935	3.57679
	1857.36	11.0208	3.31976
	1859.26	9.31641	3.05228
	1861.16	7.65023	2.7659
	1863.06	6.27706	2.50541
	1864.96	5.27546	2.29684
	1866.86	4.47042	2.11434
	1868.76	3.69113	1.92123
	1870.66	2.96962	1.72326
	1872.56	2.36888	1.53912
	1874.47	1.87316	1.36863
	1876.37	1.71838	1.31087
	1878.27	1.20613	1.09824
	1880.17	0.766588	0.87555
	1882.07	0.332279	0.576437
	1883.97	0.616004	0.784859
	1885.87	0.594523	0.771053
	1887.77	0.414457	0.643783
	1889.67	0.0111867	0.105767
	1891.57	-0.319174	0.564955
	1893.47	-0.453248	0.673237
	1895.37	-0.17875	0.422788
	1897.27	0.140072	0.374262
	1899.17	0.120098	0.346552
	1901.07	-0.0740547	0.27213
	1902.97	-0.0741696	0.272341
	1904.87	0.0671546	0.259142
	1906.77	0.235812	0.485604
	1908.67	0.559733	0.748153
	1910.57	0.980502	0.990203
	1912.47	1.1172	1.05698
	1914.37	1.29536	1.13814
	1916.27	1.43499	1.19791
	1918.17	1.39055	1.17922
	1920.07	1.12977	1.06291
	1921.97	1.2421	1.1145
	1923.87	1.6044	1.26665
	1925.77	1.65864	1.28788
	1927.67	1.61918	1.27247
	1929.57	1.74182	1.31978
	1931.48	1.73728	1.31806
	1933.38	1.63674	1.27935
	1935.28	1.5239	1.23446
	1937.18	1.43885	1.19952
	1939.08	1.22023	1.10464
	1940.98	1.08589	1.04206
	1942.88	0.854166	0.924211
	1944.78	0.59978	0.774455
	1946.68	0.379921	0.616377
	1948.58	0.169142	0.411269
	1950.48	0.0882966	0.297147
	1952.38	0.0207973	0.144213
	1954.28	-0.181846	0.426434
	1956.18	-0.414574	0.643874
	1958.08	-0.614796	0.784089
	1959.98	-0.40076	0.633056
	1961.88	-0.296308	0.544342
	1963.78	-0.159577	0.399471
	1965.68	-0.106205	0.325891
	1967.58	-0.222432	0.471627
	1969.48	-0.264119	0.513925
	1971.38	-0.299502	0.547267
	1973.28	-0.00764213	0.0874193
	1975.18	0.0609064	0.246792
	1977.08	0.0116633	0.107997
	1978.98	0.194325	0.440823
	1980.88	0.359313	0.599427
	1982.78	0.289751	0.538285
	1984.68	0.264489	0.514285
	1986.58	0.379414	0.615966
	1988.48	0.766474	0.875485
	1990.39	1.10092	1.04925
	1992.29	1.06068	1.02989
	1994.19	1.03337	1.01655
	1996.09	0.781727	0.884153
	1997.99	0.837918	0.915379
	1999.89	1.05856	1.02886
	2001.79	1.46788	1.21156
	2003.69	1.70353	1.30519
	2005.59	1.85844	1.36325
	2007.49	1.81694	1.34794
	2009.39	1.65136	1.28505
	2011.29	1.62013	1.27284
	2013.19	1.80733	1.34437
	2015.09	2.09373	1.44697
	2016.99	2.31791	1.52247
	2018.89	2.27531	1.50841
	2020.79	2.18885	1.47947
	2022.69	2.35868	1.5358
	2024.59	2.42917	1.55858
	2026.49	2.68863	1.63971
	2028.39	2.6338	1.6229
	2030.29	2.46315	1.56944
	2032.19	2.10712	1.45159
	2034.09	1.97309	1.40467
	2035.99	1.9794	1.40691
	2037.89	2.20075	1.48349
	2039.79	2.20589	1.48522
	2041.69	2.10532	1.45097
	2043.59	2.08476	1.44387
	2045.49	1.9943	1.4122
	2047.39	1.82874	1.35231
	2049.3	1.86954	1.36731
	2051.2	1.9984	1.41365
	2053.1	1.85832	1.3632
	2055	1.83994	1.35644
	2056.9	1.59315	1.2622
	2058.8	1.56334	1.25033
	2060.7	1.33353	1.15479
	2062.6	1.29836	1.13946
	2064.5	1.09478	1.04632
	2066.4	1.08072	1.03957
	2068.3	0.923422	0.960948
	2070.2	0.940673	0.969883
	2072.1	0.716509	0.846469
	2074	0.451322	0.671805
	2075.9	0.0405955	0.201483
	2077.8	-0.0131485	0.114667
	2079.7	0.115044	0.339182
	2081.6	0.191086	0.437134
	2083.5	0.189075	0.434827
	2085.4	0.23657	0.486384
	2087.3	0.125646	0.354466
	2089.2	0.206746	0.454693
	2091.1	0.345204	0.587541
	2093	0.51638	0.718596
	2094.9	0.530864	0.728604
	2096.8	0.632609	0.795367
	2098.7	0.82511	0.908356
	2100.6	0.899447	0.948392
	2102.5	0.797713	0.893148
	2104.4	0.601094	0.775303
	2106.31	0.772708	0.879038
	2108.21	0.604244	0.777331
	2110.11	0.302586	0.550078
	2112.01	0.0314547	0.177355
	2113.91	-0.0047782	0.0691245
	2115.81	0.107347	0.327638
	2117.71	0.265495	0.515262
	2119.61	0.277044	0.526349
	2121.51	0.19909	0.446195
	2123.41	0.234533	0.484286
	2125.31	0.246676	0.496664
	2127.21	0.234474	0.484226
	2129.11	0.257833	0.507772
	2131.01	0.349912	0.591534
	2132.91	0.383062	0.61892
	2134.81	0.158559	0.398194
	2136.71	-0.0442594	0.210379
	2138.61	0.168274	0.410212
	2140.51	0.133747	0.365715
	2142.41	-0.0152317	0.123417
	2144.31	-0.0599454	0.244838
	2146.21	0.014034	0.118465
	2148.11	0.00303944	0.0551311
	2150.01	-0.0789922	0.281056
	2151.91	0.120492	0.34712
	2153.81	0.277084	0.526387
	2155.71	0.440129	0.663422
	2157.61	0.287792	0.536463
	2159.51	0.118179	0.343772
	2161.41	0.0135228	0.116288
	2163.31	0.212084	0.460526
	2165.22	0.252118	0.502113
	2167.12	0.175846	0.41934
	2169.02	-0.0111678	0.105678
	2170.92	-0.0484956	0.220217
	2172.82	-0.0948622	0.307997
	2174.72	-0.21276	0.461259
	2176.62	-0.231875	0.481534
	2178.52	-0.00636132	0.0797579
	2180.42	0.0834056	0.2888
	2182.32	0.232101	0.481769
	2184.22	0.182534	0.427241
	2186.12	0.199634	0.446804
	2188.02	0.0575343	0.239863
	2189.92	-0.0640157	0.253013
	2191.82	-0.168376	0.410336
	2193.72	-0.062297	0.249594
	2195.62	-0.104574	0.323378
	2197.52	-0.0629119	0.250822
	2199.42	0.0440771	0.209946
	2201.32	0.264974	0.514756
	2203.22	-0.144239	0.379788
