Generated file C:/Users/didvk/Downloads/Dioptas_Win64_0.5.0/1_mask&dat&fxye_1position/15_ReMoB2_665psi_noRuby_S_P1_C1_D1w_097.fxye using DIOPTAS
# == pyFAI calibration ==
# Distance Sample to Detector: 0.21643023575112377 m
# PONI: 8.848e-02, 8.638e-02 m
# Rotations: 0.008179 -0.001145 -0.000000 rad
# 
# == Fit2d calibration ==
# Distance Sample-beamCenter: 216.438 mm
# Center: x=491.896, y=512.970 pix
# Tilt: 0.473 deg  TiltPlanRot: -172.032 deg
# 
# Detector Pilatus CdTe 1M	 PixelSize= 1.720e-04, 1.720e-04 m
#    Detector has a mask: True 
#    Detector has a dark current: False 
#    detector has a flat field: False 
# 
# Wavelength: 4.133e-11 m
# Mask applied: None
# Dark current applied: None
# Flat field applied: None
# Polarization factor: None
# Normalization factor: None
BANK	1	1006	1006 CONS	293.393	1.90033 0.4133 0.0 FXYE
	293.393	0.30517	0.552422
	295.294	0.519593	0.720828
	297.194	0.227654	0.477131
	299.094	0.265765	0.515524
	300.995	0.569017	0.754332
	302.895	0.997836	0.998917
	304.795	0.352796	0.593966
	306.696	0.176856	0.420542
	308.596	0.272214	0.521742
	310.496	0.601345	0.775464
	312.397	0.899608	0.948477
	314.297	0.639057	0.79941
	316.197	0.591803	0.769287
	318.098	0.0335362	0.183129
	319.998	-0.106418	0.326217
	321.898	0.289967	0.538486
	323.799	1.02365	1.01176
	325.699	1.18429	1.08825
	327.599	0.575657	0.758721
	329.5	0.445685	0.667596
	331.4	0.62955	0.793442
	333.3	0.902198	0.949841
	335.201	1.12533	1.06081
	337.101	1.05802	1.0286
	339.001	0.865221	0.930173
	340.902	0.959583	0.979583
	342.802	1.49864	1.22419
	344.702	2.09996	1.44912
	346.603	2.6757	1.63576
	348.503	3.55278	1.88488
	350.403	5.12955	2.26485
	352.304	7.92683	2.81546
	354.204	10.3168	3.21199
	356.104	12.1545	3.48633
	358.005	12.2322	3.49745
	359.905	10.6868	3.26906
	361.805	7.7786	2.78902
	363.706	5.27246	2.29618
	365.606	3.71207	1.92667
	367.506	2.69554	1.64181
	369.407	1.90587	1.38053
	371.307	1.32248	1.14999
	373.207	1.09254	1.04525
	375.108	1.26098	1.12293
	377.008	1.39777	1.18227
	378.908	1.49302	1.22189
	380.808	1.47804	1.21575
	382.709	1.61602	1.27123
	384.609	1.15953	1.07682
	386.509	0.907271	0.952508
	388.41	0.97142	0.985606
	390.31	0.892076	0.944498
	392.21	0.882682	0.939512
	394.111	0.871685	0.933641
	396.011	1.04597	1.02273
	397.911	0.542285	0.7364
	399.812	0.271008	0.520584
	401.712	0.501307	0.70803
	403.612	0.847906	0.920818
	405.513	1.06937	1.03411
	407.413	1.1188	1.05773
	409.313	0.655337	0.809529
	411.214	0.476417	0.69023
	413.114	0.535188	0.731566
	415.014	0.887192	0.941908
	416.915	0.787822	0.887593
	418.815	0.148322	0.385126
	420.715	-0.0997775	0.315876
	422.616	-0.127882	0.357606
	424.516	0.113698	0.337191
	426.416	0.523502	0.723535
	428.317	0.528376	0.726895
	430.217	0.213456	0.462013
	432.117	-0.11613	0.340779
	434.018	-0.0231919	0.152289
	435.918	0.63729	0.798304
	437.818	1.18368	1.08797
	439.719	1.82757	1.35188
	441.619	1.69004	1.30002
	443.519	1.49362	1.22214
	445.42	1.51632	1.23139
	447.32	1.53396	1.23853
	449.22	1.276	1.1296
	451.121	1.30695	1.14322
	453.021	0.836085	0.914377
	454.921	0.755615	0.869261
	456.822	0.686531	0.828572
	458.722	0.697276	0.835031
	460.622	0.458317	0.676991
	462.523	0.284198	0.533102
	464.423	-0.0958187	0.309546
	466.323	-0.0453501	0.212956
	468.224	0.100609	0.317189
	470.124	0.573806	0.7575
	472.024	0.894154	0.945597
	473.924	0.565142	0.751759
	475.825	0.382605	0.618551
	477.725	0.0629999	0.250998
	479.625	0.0849866	0.291525
	481.526	0.0732639	0.270673
	483.426	0.0459025	0.214249
	485.326	0.0140964	0.118728
	487.227	0.284416	0.533307
	489.127	0.425813	0.652544
	491.027	0.700324	0.836854
	492.928	0.713001	0.844394
	494.828	0.727838	0.853134
	496.728	0.63431	0.796436
	498.629	0.246212	0.496198
	500.529	0.331838	0.576054
	502.429	0.00274022	0.0523471
	504.33	0.137204	0.37041
	506.23	0.74984	0.865933
	508.13	0.775896	0.88085
	510.031	0.873054	0.934374
	511.931	0.898774	0.948037
	513.831	1.13317	1.06451
	515.732	0.807695	0.898719
	517.632	0.0763401	0.276297
	519.532	-0.0010942	0.0330787
	521.433	0.552097	0.743032
	523.333	0.953495	0.976471
	525.233	1.11769	1.05721
	527.134	1.02365	1.01176
	529.034	1.07139	1.03508
	530.934	0.48461	0.69614
	532.835	0.21928	0.468273
	534.735	0.289162	0.537738
	536.635	0.746059	0.863747
	538.536	1.67306	1.29347
	540.436	1.12877	1.06244
	542.336	0.680658	0.82502
	544.237	-0.179838	0.424074
	546.137	0.236342	0.48615
	548.037	0.750829	0.866504
	549.938	0.85491	0.924613
	551.838	1.05559	1.02742
	553.738	0.44959	0.670515
	555.639	-0.111757	0.3343
	557.539	-0.111726	0.334255
	559.439	0.292479	0.540813
	561.34	0.896076	0.946613
	563.24	0.957169	0.97835
	565.14	0.926102	0.962342
	567.041	0.654699	0.809134
	568.941	0.318376	0.564248
	570.841	0.161913	0.402384
	572.741	-0.0102524	0.101254
	574.642	0.129988	0.360538
	576.542	0.199813	0.447004
	578.442	0.145625	0.381608
	580.343	0.578459	0.760565
	582.243	1.00582	1.0029
	584.143	1.48635	1.21916
	586.044	1.46118	1.20879
	587.944	1.49062	1.22091
	589.844	1.721	1.31187
	591.745	2.26436	1.50478
	593.645	2.30982	1.51981
	595.545	2.09075	1.44594
	597.446	2.06567	1.43725
	599.346	1.6764	1.29476
	601.246	1.24186	1.11439
	603.147	0.867149	0.931208
	605.047	-0.0279687	0.167239
	606.947	-0.0469088	0.216584
	608.848	-0.108114	0.328808
	610.748	0.308927	0.555812
	612.648	0.279573	0.528746
	614.549	0.865051	0.930081
	616.449	0.836184	0.914431
	618.349	0.853987	0.924114
	620.25	0.356292	0.596902
	622.15	0.438847	0.662455
	624.05	0.0169498	0.130191
	625.951	0.0446039	0.211196
	627.851	-0.0935616	0.305878
	629.751	-0.100028	0.316272
	631.652	0.00981148	0.0990529
	633.552	0.335501	0.579225
	635.452	0.679917	0.824571
	637.353	0.779684	0.882997
	639.253	0.688782	0.829929
	641.153	0.505759	0.711167
	643.054	0.703136	0.838532
	644.954	1.12518	1.06075
	646.854	1.22228	1.10557
	648.755	2.04886	1.43138
	650.655	3.82641	1.95612
	652.555	6.09094	2.46798
	654.456	7.62767	2.76182
	656.356	8.03316	2.83428
	658.256	7.43975	2.72759
	660.157	6.14441	2.47879
	662.057	4.72095	2.17278
	663.957	3.09355	1.75885
	665.857	1.81476	1.34713
	667.758	0.601261	0.77541
	669.658	0.15507	0.393789
	671.558	0.0514335	0.226789
	673.459	0.460398	0.678527
	675.359	0.780127	0.883248
	677.259	1.07344	1.03607
	679.16	1.0378	1.01873
	681.06	1.44257	1.20107
	682.96	2.38665	1.54488
	684.861	4.06487	2.01615
	686.761	5.8377	2.41613
	688.661	7.42586	2.72504
	690.562	8.54643	2.92343
	692.462	9.52888	3.08689
	694.362	10.0737	3.17391
	696.263	10.3083	3.21065
	698.163	10.7037	3.27165
	700.063	11.178	3.34336
	701.964	12.4467	3.52799
	703.864	14.9262	3.86344
	705.764	18.3812	4.28733
	707.665	23.831	4.8817
	709.565	30.6778	5.53875
	711.465	38.424	6.19871
	713.366	47.5768	6.8976
	715.266	52.7273	7.26136
	717.166	55.7046	7.46355
	719.067	53.7826	7.33366
	720.967	48.5883	6.97053
	722.867	41.0981	6.41078
	724.768	34.1392	5.84288
	726.668	27.0455	5.20053
	728.568	21.4422	4.63058
	730.469	16.889	4.10962
	732.369	12.9162	3.59392
	734.269	10.4164	3.22745
	736.17	8.34557	2.88887
	738.07	7.38678	2.71786
	739.97	6.05171	2.46002
	741.871	5.37157	2.31766
	743.771	4.69462	2.16671
	745.671	3.84945	1.962
	747.572	3.19574	1.78766
	749.472	3.11271	1.76429
	751.372	3.17322	1.78135
	753.273	3.02842	1.74024
	755.173	2.7303	1.65236
	757.073	2.23003	1.49333
	758.973	1.64405	1.2822
	760.874	1.0828	1.04058
	762.774	1.02217	1.01102
	764.674	0.82411	0.907805
	766.575	0.713151	0.844483
	768.475	0.566383	0.752584
	770.375	0.635288	0.79705
	772.276	0.927352	0.962991
	774.176	0.692127	0.831942
	776.076	0.353021	0.594155
	777.977	-0.0730639	0.270303
	779.877	-0.0708292	0.266137
	781.777	-0.0411501	0.202855
	783.678	0.263442	0.513266
	785.578	0.363804	0.603162
	787.478	0.561662	0.749441
	789.379	0.75815	0.870718
	791.279	0.952304	0.975861
	793.179	0.839096	0.916022
	795.08	0.491837	0.701311
	796.98	-0.00313047	0.0559506
	798.88	0.207241	0.455238
	800.781	0.382429	0.618409
	802.681	0.51654	0.718707
	804.581	0.100731	0.317381
	806.482	-0.122142	0.349489
	808.382	0.155193	0.393945
	810.282	0.664693	0.815287
	812.183	1.2749	1.12912
	814.083	1.14519	1.07014
	815.983	0.85024	0.922084
	817.884	0.376453	0.613558
	819.784	0.172598	0.41545
	821.684	0.218147	0.467062
	823.585	0.096247	0.310237
	825.485	0.0245716	0.156753
	827.385	0.213703	0.46228
	829.286	0.134493	0.366734
	831.186	0.576356	0.759181
	833.086	0.407573	0.638415
	834.987	0.251954	0.50195
	836.887	0.140744	0.375159
	838.787	0.265346	0.515118
	840.688	0.494956	0.703531
	842.588	0.508063	0.712786
	844.488	0.402991	0.634816
	846.389	0.397416	0.630409
	848.289	0.229296	0.478849
	850.189	0.000226439	0.0150479
	852.089	-0.112433	0.33531
	853.99	-0.0691144	0.262896
	855.89	-0.306087	0.553251
	857.79	-0.342292	0.585058
	859.691	-0.32039	0.56603
	861.591	-0.199336	0.446471
	863.491	-0.346555	0.588689
	865.392	-0.686607	0.828618
	867.292	-0.453867	0.673697
	869.192	-0.0787844	0.280686
	871.093	0.271642	0.521193
	872.993	0.400574	0.632909
	874.893	0.593442	0.770352
	876.794	0.574794	0.758152
	878.694	0.465238	0.682083
	880.594	0.355193	0.595981
	882.495	0.21993	0.468967
	884.395	0.147692	0.384307
	886.295	0.254311	0.504293
	888.196	0.201642	0.449046
	890.096	0.0929931	0.304948
	891.996	-0.141051	0.375567
	893.897	0.198565	0.445607
	895.797	0.242618	0.492563
	897.697	0.601232	0.775392
	899.598	1.2375	1.11243
	901.498	1.45301	1.20541
	903.398	1.8982	1.37775
	905.299	1.91689	1.38452
	907.199	2.37645	1.54157
	909.099	2.92957	1.7116
	911	3.70676	1.92529
	912.9	4.53103	2.12862
	914.8	5.67853	2.38297
	916.701	7.48296	2.7355
	918.601	9.47663	3.07841
	920.501	11.6192	3.40869
	922.402	14.3724	3.7911
	924.302	18.3217	4.28039
	926.202	23.3023	4.82725
	928.103	30.308	5.50527
	930.003	38.9093	6.23773
	931.903	50.7962	7.12715
	933.804	66.5293	8.15655
	935.704	87.2442	9.34046
	937.604	113.453	10.6514
	939.505	145.274	12.053
	941.405	182.379	13.5048
	943.305	217.706	14.7549
	945.206	248.445	15.7621
	947.106	268.81	16.3954
	949.006	279.921	16.7308
	950.906	280.35	16.7437
	952.807	272.482	16.507
	954.707	257.73	16.054
	956.607	239.472	15.4749
	958.508	218.214	14.7721
	960.408	197.656	14.059
	962.308	178.739	13.3693
	964.209	162.17	12.7346
	966.109	148.694	12.194
	968.009	138.059	11.7498
	969.91	130.434	11.4207
	971.81	124.827	11.1726
	973.71	122.466	11.0665
	975.611	120.945	10.9975
	977.511	121.377	11.0171
	979.411	120.531	10.9786
	981.312	120.012	10.955
	983.212	119.078	10.9123
	985.112	117.181	10.825
	987.013	114.96	10.7219
	988.913	111.018	10.5365
	990.813	104.97	10.2455
	992.714	97.3884	9.86856
	994.614	89.2608	9.44779
	996.514	81.4534	9.02516
	998.415	73.7045	8.58513
	1000.31	65.8985	8.11779
	1002.22	58.5245	7.65013
	1004.12	51.7093	7.19092
	1006.02	44.9177	6.70207
	1007.92	38.4881	6.20388
	1009.82	32.1106	5.66662
	1011.72	26.5911	5.15666
	1013.62	21.2489	4.60965
	1015.52	17.0713	4.13175
	1017.42	13.4165	3.66286
	1019.32	10.6921	3.26988
	1021.22	8.45636	2.90798
	1023.12	6.73839	2.59584
	1025.02	5.05838	2.24908
	1026.92	3.5662	1.88844
	1028.82	2.24471	1.49824
	1030.72	1.37865	1.17416
	1032.62	0.584079	0.76425
	1034.52	0.068509	0.261742
	1036.42	-0.553032	0.743661
	1038.32	-0.649474	0.8059
	1040.22	-1.03034	1.01506
	1042.12	-1.33851	1.15694
	1044.02	-1.22942	1.10879
	1045.92	-0.918566	0.958419
	1047.82	-0.464097	0.681247
	1049.72	-0.341178	0.584104
	1051.62	0.20533	0.453133
	1053.52	0.586313	0.765711
	1055.42	1.51085	1.22916
	1057.32	2.4508	1.5655
	1059.23	3.31137	1.81972
	1061.13	3.58186	1.89258
	1063.03	3.87346	1.96811
	1064.93	3.70419	1.92463
	1066.83	3.34769	1.82967
	1068.73	3.1188	1.76601
	1070.63	3.02286	1.73864
	1072.53	3.41425	1.84777
	1074.43	3.27354	1.80929
	1076.33	3.23964	1.7999
	1078.23	3.17387	1.78153
	1080.13	3.12016	1.7664
	1082.03	3.03139	1.74109
	1083.93	3.07731	1.75423
	1085.83	2.90491	1.70438
	1087.73	3.19738	1.78812
	1089.63	2.97937	1.72608
	1091.53	3.18665	1.78512
	1093.43	3.64963	1.9104
	1095.33	3.98207	1.99551
	1097.23	3.94547	1.98632
	1099.13	3.85944	1.96454
	1101.03	3.90169	1.97527
	1102.93	4.23101	2.05694
	1104.83	4.37237	2.09102
	1106.73	4.30882	2.07577
	1108.63	4.19327	2.04775
	1110.53	4.29193	2.0717
	1112.43	4.8607	2.2047
	1114.33	5.75721	2.39942
	1116.23	6.23575	2.49715
	1118.14	6.40148	2.53011
	1120.04	6.47884	2.54536
	1121.94	7.24747	2.69211
	1123.84	8.01599	2.83125
	1125.74	8.35575	2.89063
	1127.64	8.95593	2.99265
	1129.54	9.8504	3.13853
	1131.44	10.6522	3.26378
	1133.34	11.0305	3.32122
	1135.24	11.0737	3.32772
	1137.14	11.0133	3.31864
	1139.04	10.9107	3.30314
	1140.94	10.4348	3.2303
	1142.84	9.88205	3.14357
	1144.74	9.0878	3.0146
	1146.64	8.27051	2.87585
	1148.54	7.46335	2.73191
	1150.44	6.87285	2.62161
	1152.34	5.6758	2.38239
	1154.24	4.43984	2.10709
	1156.14	3.48272	1.8662
	1158.04	2.62708	1.62083
	1159.94	1.82673	1.35157
	1161.84	1.16731	1.08042
	1163.74	0.930163	0.96445
	1165.64	0.680052	0.824653
	1167.54	0.491377	0.700983
	1169.44	-0.0894285	0.299046
	1171.34	-0.779874	0.883105
	1173.24	-0.814767	0.902645
	1175.15	-0.590074	0.768163
	1177.05	-0.234804	0.484566
	1178.95	-0.415039	0.644235
	1180.85	-0.67863	0.82379
	1182.75	-0.416978	0.645739
	1184.65	-0.397244	0.630273
	1186.55	-0.117803	0.343224
	1188.45	0.195904	0.44261
	1190.35	1.00749	1.00374
	1192.25	1.89867	1.37792
	1194.15	2.32006	1.52317
	1196.05	2.92903	1.71144
	1197.95	3.6862	1.91995
	1199.85	4.81132	2.19347
	1201.75	6.12588	2.47505
	1203.65	7.48187	2.7353
	1205.55	9.50556	3.08311
	1207.45	11.9236	3.45306
	1209.35	14.8629	3.85525
	1211.25	18.8476	4.34138
	1213.15	23.8414	4.88276
	1215.05	29.9896	5.47627
	1216.95	38.2315	6.18317
	1218.85	47.4853	6.89096
	1220.75	60.6063	7.78501
	1222.65	75.6912	8.70007
	1224.55	94.7726	9.73512
	1226.45	119.251	10.9202
	1228.35	147.176	12.1316
	1230.25	182.555	13.5113
	1232.15	221.605	14.8864
	1234.06	266.166	16.3146
	1235.96	311.471	17.6485
	1237.86	357.543	18.9088
	1239.76	396.778	19.9193
	1241.66	424.405	20.6011
	1243.56	436.14	20.884
	1245.46	428.312	20.6957
	1247.36	404.661	20.1162
	1249.26	368.207	19.1887
	1251.16	323.185	17.9774
	1253.06	278.64	16.6925
	1254.96	234.002	15.2971
	1256.86	193.394	13.9066
	1258.76	158.44	12.5873
	1260.66	127.231	11.2797
	1262.56	102.264	10.1126
	1264.46	82.4102	9.07801
	1266.36	67.1674	8.19557
	1268.26	56.1984	7.49656
	1270.16	47.004	6.85595
	1272.06	40.5092	6.36468
	1273.96	35.7802	5.98166
	1275.86	32.3857	5.69084
	1277.76	29.7657	5.4558
	1279.66	27.5218	5.24613
	1281.56	25.7812	5.07752
	1283.46	24.3902	4.93864
	1285.36	23.2924	4.82622
	1287.26	22.5454	4.7482
	1289.16	21.5569	4.64294
	1291.06	20.6861	4.5482
	1292.97	19.5007	4.41595
	1294.87	19.3536	4.39927
	1296.77	18.6937	4.32362
	1298.67	18.4743	4.29817
	1300.57	17.1176	4.13734
	1302.47	15.5547	3.94394
	1304.37	14.2223	3.77124
	1306.27	13.5569	3.68198
	1308.17	12.6072	3.55067
	1310.07	11.3255	3.36534
	1311.97	10.3292	3.21391
	1313.87	9.74896	3.12233
	1315.77	9.45409	3.07475
	1317.67	9.06015	3.01001
	1319.57	8.65892	2.9426
	1321.47	8.19218	2.8622
	1323.37	8.25639	2.87339
	1325.27	8.64973	2.94104
	1327.17	8.63389	2.93835
	1329.07	8.46304	2.90913
	1330.97	8.01536	2.83114
	1332.87	7.87729	2.80665
	1334.77	7.77933	2.78914
	1336.67	8.42488	2.90256
	1338.57	8.63446	2.93845
	1340.47	8.79744	2.96605
	1342.37	9.28525	3.04717
	1344.27	9.65104	3.10661
	1346.17	10.1469	3.18541
	1348.07	10.3567	3.21818
	1349.98	10.633	3.26082
	1351.88	10.8455	3.29326
	1353.78	10.9005	3.30159
	1355.68	10.6425	3.26228
	1357.58	10.4574	3.2338
	1359.48	10.178	3.1903
	1361.38	9.81629	3.1331
	1363.28	9.28361	3.0469
	1365.18	8.49622	2.91483
	1367.08	7.94381	2.81848
	1368.98	6.98938	2.64374
	1370.88	6.28356	2.5067
	1372.78	5.22867	2.28663
	1374.68	4.41552	2.10131
	1376.58	4.03435	2.00857
	1378.48	3.71935	1.92856
	1380.38	3.33309	1.82568
	1382.28	2.75614	1.66016
	1384.18	2.27394	1.50796
	1386.08	1.70398	1.30537
	1387.98	1.46186	1.20907
	1389.88	0.879408	0.937768
	1391.78	0.53166	0.72915
	1393.68	0.039302	0.198247
	1395.58	-0.117918	0.343392
	1397.48	-0.435475	0.659905
	1399.38	-0.681148	0.825317
	1401.28	-0.808737	0.899298
	1403.18	-0.729908	0.854347
	1405.08	-0.700595	0.837015
	1406.98	-0.189983	0.435871
	1408.89	0.054881	0.234267
	1410.79	0.39064	0.625012
	1412.69	0.926396	0.962495
	1414.59	1.26877	1.1264
	1416.49	1.75935	1.3264
	1418.39	1.88162	1.37172
	1420.29	2.57866	1.60582
	1422.19	3.06937	1.75196
	1424.09	3.49443	1.86934
	1425.99	3.78932	1.94662
	1427.89	4.12172	2.0302
	1429.79	4.9047	2.21466
	1431.69	5.42911	2.33005
	1433.59	5.55783	2.3575
	1435.49	5.48664	2.34236
	1437.39	5.4745	2.33976
	1439.29	5.67853	2.38297
	1441.19	5.9834	2.4461
	1443.09	6.144	2.47871
	1444.99	5.94332	2.43789
	1446.89	5.65679	2.3784
	1448.79	5.23706	2.28846
	1450.69	4.46519	2.1131
	1452.59	3.96612	1.99151
	1454.49	3.47556	1.86429
	1456.39	3.2351	1.79864
	1458.29	2.69166	1.64063
	1460.19	2.29928	1.51634
	1462.09	1.44639	1.20266
	1463.99	0.955027	0.977255
	1465.89	0.633001	0.795614
	1467.8	0.499033	0.706422
	1469.7	0.16061	0.400761
	1471.6	-0.0254609	0.159565
	1473.5	-0.0725926	0.26943
	1475.4	0.327232	0.572042
	1477.3	0.233742	0.483469
	1479.2	-0.159629	0.399536
	1481.1	-0.497289	0.705187
	1483	-0.187449	0.432954
	1484.9	-0.245538	0.495518
	1486.8	-0.388576	0.623358
	1488.7	-0.67081	0.81903
	1490.6	-0.110849	0.33294
	1492.5	-0.114194	0.337925
	1494.4	-0.158492	0.398111
	1496.3	-0.21108	0.459434
	1498.2	0.0473418	0.217582
	1500.1	0.0404277	0.201066
	1502	-0.164276	0.40531
	1503.9	-0.539092	0.734229
	1505.8	-0.374666	0.6121
	1507.7	-0.162537	0.403158
	1509.6	0.307502	0.554529
	1511.5	0.17253	0.415368
	1513.4	0.0875346	0.295862
	1515.3	0.0829871	0.288075
	1517.2	0.160243	0.400304
	1519.1	0.521858	0.722398
	1521	0.80772	0.898732
	1522.9	1.09619	1.04699
	1524.81	0.754578	0.868665
	1526.71	0.537103	0.732873
	1528.61	0.482629	0.694715
	1530.51	0.550078	0.741673
	1532.41	0.611189	0.781786
	1534.31	0.68121	0.825355
	1536.21	0.524049	0.723912
	1538.11	0.283801	0.53273
	1540.01	0.220579	0.469659
	1541.91	0.293728	0.541967
	1543.81	0.234338	0.484085
	1545.71	0.618222	0.786271
	1547.61	0.93071	0.964733
	1549.51	1.14966	1.07222
	1551.41	1.24728	1.11682
	1553.31	0.99449	0.997241
	1555.21	0.779736	0.883027
	1557.11	0.461607	0.679417
	1559.01	0.516251	0.718506
	1560.91	0.364948	0.604109
	1562.81	0.293466	0.541725
	1564.71	0.195927	0.442636
	1566.61	1.69426	1.30164
	1568.51	2.32941	1.52624
	1570.41	2.02904	1.42445
	1572.31	0.102542	0.320221
	1574.21	0.189877	0.435749
	1576.11	0.239413	0.489298
	1578.01	0.345479	0.587775
	1579.91	0.257456	0.507401
	1581.81	0.402352	0.634312
	1583.72	0.0858091	0.292932
	1585.62	-0.163706	0.404606
	1587.52	0.0244044	0.156219
	1589.42	0.376558	0.613643
	1591.32	0.494781	0.703407
	1593.22	0.649037	0.805628
	1595.12	0.543766	0.737405
	1597.02	0.81813	0.904505
	1598.92	1.1953	1.0933
	1600.82	1.33619	1.15594
	1602.72	1.63461	1.27852
	1604.62	1.82641	1.35145
	1606.52	2.08021	1.44229
	1608.42	2.27235	1.50743
	1610.32	2.79684	1.67238
	1612.22	3.64341	1.90877
	1614.12	4.44409	2.1081
	1616.02	5.29228	2.3005
	1617.92	5.84242	2.41711
	1619.82	6.70038	2.58851
	1621.72	7.56779	2.75096
	1623.62	8.64857	2.94085
	1625.52	9.625	3.10242
	1627.42	11.1115	3.3334
	1629.32	12.6742	3.56009
	1631.22	14.4111	3.7962
	1633.12	16.1605	4.02001
	1635.02	18.0094	4.24374
	1636.92	19.9503	4.46658
	1638.82	22.2333	4.71522
	1640.73	23.7377	4.87214
	1642.63	25.3636	5.03623
	1644.53	26.5721	5.15481
	1646.43	27.6784	5.26103
	1648.33	29.1331	5.39751
	1650.23	30.1382	5.48982
	1652.13	30.7496	5.54523
	1654.03	30.5896	5.53079
	1655.93	30.3383	5.50802
	1657.83	30.0216	5.4792
	1659.73	29.5748	5.43827
	1661.63	29.4625	5.42793
	1663.53	28.8828	5.37427
	1665.43	28.3537	5.32482
	1667.33	27.6777	5.26096
	1669.23	26.7106	5.16823
	1671.13	26.0129	5.10028
	1673.03	25.0129	5.00129
	1674.93	24.041	4.90316
	1676.83	23.1023	4.80648
	1678.73	22.413	4.73424
	1680.63	21.8226	4.67147
	1682.53	21.4379	4.63011
	1684.43	20.8989	4.57154
	1686.33	20.5853	4.53711
	1688.23	20.5176	4.52964
	1690.13	20.3976	4.51637
	1692.03	20.5427	4.53241
	1693.93	20.2146	4.49606
	1695.83	19.6179	4.42922
	1697.73	18.6013	4.31292
	1699.64	17.6888	4.2058
	1701.54	16.7515	4.09286
	1703.44	15.8685	3.98352
	1705.34	14.7923	3.84608
	1707.24	13.1592	3.62757
	1709.14	11.7188	3.42327
	1711.04	10.5099	3.2419
	1712.94	9.41736	3.06877
	1714.84	8.02466	2.83278
	1716.74	6.91161	2.62899
	1718.64	6.07623	2.465
	1720.54	5.07331	2.2524
	1722.44	4.31048	2.07617
	1724.34	3.89142	1.97267
	1726.24	3.48518	1.86686
	1728.14	3.28037	1.81118
	1730.04	2.88586	1.69878
	1731.94	2.46576	1.57027
	1733.84	2.0446	1.4299
	1735.74	1.57797	1.25617
	1737.64	1.53859	1.2404
	1739.54	1.40353	1.18471
	1741.44	1.64995	1.2845
	1743.34	1.70203	1.30462
	1745.24	1.94268	1.3938
	1747.14	1.94467	1.39451
	1749.04	1.9676	1.40271
	1750.94	1.94342	1.39406
	1752.84	2.12575	1.458
	1754.74	2.30406	1.51791
	1756.64	2.38603	1.54468
	1758.55	2.47897	1.57447
	1760.45	2.45522	1.56691
	1762.35	2.31931	1.52293
	1764.25	2.28384	1.51124
	1766.15	2.19361	1.48108
	1768.05	2.23416	1.49471
	1769.95	2.34449	1.53117
	1771.85	2.63653	1.62374
	1773.75	2.64757	1.62714
	1775.65	2.70315	1.64412
	1777.55	2.95108	1.71787
	1779.45	3.23506	1.79863
	1781.35	3.39726	1.84317
	1783.25	3.72533	1.93011
	1785.15	4.08953	2.02226
	1787.05	4.43216	2.10527
	1788.95	4.30572	2.07502
	1790.85	4.71569	2.17156
	1792.75	5.25474	2.29232
	1794.65	6.22838	2.49567
	1796.55	7.12202	2.66871
	1798.45	8.10984	2.84778
	1800.35	9.08177	3.0136
	1802.25	10.0958	3.17738
	1804.15	10.932	3.30637
	1806.05	11.9925	3.46302
	1807.95	13.4216	3.66355
	1809.85	15.2518	3.90536
	1811.75	16.947	4.11667
	1813.65	18.8091	4.33694
	1815.56	20.8522	4.56643
	1817.46	23.3723	4.83449
	1819.36	26.2888	5.12726
	1821.26	29.0527	5.39006
	1823.16	32.0256	5.65912
	1825.06	34.9836	5.91469
	1826.96	38.2964	6.18841
	1828.86	41.271	6.42425
	1830.76	44.057	6.63755
	1832.66	47.1433	6.8661
	1834.56	50.0057	7.07147
	1836.46	52.5989	7.25251
	1838.36	54.4289	7.3776
	1840.26	55.9067	7.47708
	1842.16	56.6878	7.52913
	1844.06	56.6457	7.52633
	1845.96	56.1707	7.49471
	1847.86	54.8675	7.40726
	1849.76	52.7395	7.2622
	1851.66	49.3835	7.02734
	1853.56	46.0433	6.78552
	1855.46	42.6427	6.53014
	1857.36	39.0593	6.24974
	1859.26	34.9693	5.91349
	1861.16	30.689	5.53976
	1863.06	26.9792	5.19415
	1864.96	23.4484	4.84236
	1866.86	20.153	4.48921
	1868.76	17.1045	4.13576
	1870.66	14.615	3.82295
	1872.56	12.3707	3.51721
	1874.47	10.1128	3.18007
	1876.37	8.61603	2.93531
	1878.27	7.18493	2.68047
	1880.17	6.31915	2.51379
	1882.07	5.40292	2.32442
	1883.97	5.13555	2.26617
	1885.87	4.60812	2.14665
	1887.77	4.10713	2.0266
	1889.67	3.58797	1.89419
	1891.57	2.83813	1.68468
	1893.47	2.41584	1.5543
	1895.37	2.07451	1.44032
	1897.27	1.83107	1.35317
	1899.17	1.3549	1.164
	1901.07	0.964621	0.982151
	1902.97	0.366194	0.605139
	1904.87	-0.0747924	0.273482
	1906.77	-0.0743542	0.27268
	1908.67	0.133284	0.365081
	1910.57	0.16253	0.403151
	1912.47	-0.0613393	0.247668
	1914.37	-0.271386	0.520947
	1916.27	-0.396554	0.629726
	1918.17	-0.184579	0.429626
	1920.07	0.113301	0.336602
	1921.97	-0.0600946	0.245142
	1923.87	-0.236747	0.486567
	1925.77	-0.399232	0.631848
	1927.67	-0.44524	0.667263
	1929.57	0.00302311	0.0549828
	1931.48	0.241101	0.491021
	1933.38	0.413972	0.643407
	1935.28	0.308022	0.554997
	1937.18	0.27909	0.528289
	1939.08	0.266821	0.516547
	1940.98	0.390751	0.625101
	1942.88	0.593508	0.770395
	1944.78	0.560727	0.748817
	1946.68	0.624975	0.790554
	1948.58	1.06612	1.03253
	1950.48	1.53334	1.23828
	1952.38	1.63087	1.27706
	1954.28	1.62915	1.27638
	1956.18	1.87228	1.36831
	1958.08	2.03439	1.42632
	1959.98	2.0085	1.41722
	1961.88	2.06993	1.43873
	1963.78	1.93242	1.39011
	1965.68	1.57155	1.25361
	1967.58	1.38634	1.17743
	1969.48	1.38153	1.17538
	1971.38	1.18705	1.08952
	1973.28	0.796249	0.892328
	1975.18	0.425513	0.652314
	1977.08	0.234844	0.484607
	1978.98	0.362876	0.602392
	1980.88	0.398126	0.630972
	1982.78	0.214472	0.463111
	1984.68	-0.137707	0.371089
	1986.58	-0.52052	0.72147
	1988.48	-0.317616	0.563575
	1990.39	-0.233055	0.482758
	1992.29	-0.434907	0.659475
	1994.19	-0.548494	0.740604
	1996.09	-0.361475	0.601228
	1997.99	-0.105477	0.324772
	1999.89	-0.033266	0.18239
	2001.79	0.0953695	0.30882
	2003.69	0.248051	0.498048
	2005.59	0.252428	0.502422
	2007.49	0.197775	0.444719
	2009.39	0.131128	0.362115
	2011.29	0.332262	0.576422
	2013.19	0.392566	0.626551
	2015.09	0.376864	0.613892
	2016.99	0.284893	0.533754
	2018.89	0.296665	0.544669
	2020.79	0.374003	0.611558
	2022.69	0.557157	0.74643
	2024.59	0.499512	0.706762
	2026.49	0.528375	0.726894
	2028.39	0.485663	0.696895
	2030.29	0.521825	0.722374
	2032.19	0.559138	0.747756
	2034.09	0.661114	0.813089
	2035.99	0.658299	0.811356
	2037.89	0.7857	0.886397
	2039.79	0.985761	0.992855
	2041.69	0.940346	0.969714
	2043.59	0.98099	0.990449
	2045.49	1.05684	1.02803
	2047.39	1.58566	1.25923
	2049.3	1.74305	1.32024
	2051.2	1.67549	1.29441
	2053.1	1.63188	1.27745
	2055	1.57348	1.25438
	2056.9	1.66716	1.29119
	2058.8	1.6582	1.28771
	2060.7	1.56745	1.25198
	2062.6	1.51679	1.23158
	2064.5	1.42477	1.19364
	2066.4	1.22572	1.10712
	2068.3	1.23016	1.10912
	2070.2	1.37012	1.17052
	2072.1	1.31616	1.14724
	2074	1.20511	1.09778
	2075.9	1.23678	1.11211
	2077.8	1.32066	1.1492
	2079.7	1.09763	1.04768
	2081.6	1.12164	1.05907
	2083.5	1.10752	1.05239
	2085.4	1.07235	1.03554
	2087.3	0.825423	0.908528
	2089.2	0.731436	0.85524
	2091.1	0.620529	0.787737
	2093	0.664137	0.814946
	2094.9	0.734066	0.856777
	2096.8	0.706798	0.840713
	2098.7	0.49367	0.702617
	2100.6	0.2445	0.494469
	2102.5	0.233619	0.483342
	2104.4	0.126049	0.355034
	2106.31	-0.12715	0.356581
	2108.21	-0.148057	0.384782
	2110.11	-0.0525304	0.229195
	2112.01	0.192638	0.438906
	2113.91	0.261617	0.511485
	2115.81	0.185532	0.430735
	2117.71	0.179322	0.423465
	2119.61	0.120711	0.347435
	2121.51	0.196155	0.442894
	2123.41	0.414375	0.64372
	2125.31	0.629237	0.793245
	2127.21	0.685393	0.827885
	2129.11	0.679218	0.824147
	2131.01	0.528908	0.72726
	2132.91	0.148043	0.384763
	2134.81	0.111283	0.333591
	2136.71	0.354463	0.595368
	2138.61	0.486884	0.69777
	2140.51	0.25242	0.502414
	2142.41	-0.118624	0.344418
	2144.31	-0.170001	0.412312
	2146.21	-0.0452082	0.212622
	2148.11	0.0533981	0.23108
	2150.01	0.140577	0.374936
	2151.91	-0.0292152	0.170925
	2153.81	-0.112198	0.33496
	2155.71	-0.0314212	0.17726
	2157.61	0.134466	0.366696
	2159.51	0.268916	0.518571
	2161.41	0.22655	0.475973
	2163.31	0.0553323	0.235228
	2165.22	0.0596402	0.244213
	2167.12	0.284563	0.533444
	2169.02	0.386918	0.622027
	2170.92	0.326716	0.571591
	2172.82	0.0963697	0.310435
	2174.72	0.15862	0.398271
	2176.62	0.256153	0.506115
	2178.52	0.326922	0.571771
	2180.42	0.101093	0.317951
	2182.32	-0.035561	0.188576
	2184.22	-0.140556	0.374908
	2186.12	-0.224853	0.474187
	2188.02	-0.171681	0.414344
	2189.92	-0.0568067	0.238342
	2191.82	0.126893	0.35622
	2193.72	0.273217	0.522702
	2195.62	0.272629	0.522139
	2197.52	0.0183374	0.135416
	2199.42	-0.181066	0.425519
	2201.32	-0.317364	0.563351
	2203.22	0.208125	0.456207
