Generated file C:/Users/didvk/Downloads/Dioptas_Win64_0.5.0/1_mask&dat&fxye_1position/16_ReMoB2_695psi_noRuby_S_P1_C1_D1w_103.fxye using DIOPTAS
# == pyFAI calibration ==
# Distance Sample to Detector: 0.21643023575112377 m
# PONI: 8.848e-02, 8.638e-02 m
# Rotations: 0.008179 -0.001145 -0.000000 rad
# 
# == Fit2d calibration ==
# Distance Sample-beamCenter: 216.438 mm
# Center: x=491.896, y=512.970 pix
# Tilt: 0.473 deg  TiltPlanRot: -172.032 deg
# 
# Detector Pilatus CdTe 1M	 PixelSize= 1.720e-04, 1.720e-04 m
#    Detector has a mask: True 
#    Detector has a dark current: False 
#    detector has a flat field: False 
# 
# Wavelength: 4.133e-11 m
# Mask applied: None
# Dark current applied: None
# Flat field applied: None
# Polarization factor: None
# Normalization factor: None
BANK	1	1006	1006 CONS	293.393	1.90033 0.4133 0.0 FXYE
	293.393	0.644381	0.802733
	295.294	1.19085	1.09126
	297.194	0.487601	0.698284
	299.094	-0.089559	0.299264
	300.995	-0.340713	0.583706
	302.895	-0.0727016	0.269632
	304.795	0.0900857	0.300143
	306.696	0.672495	0.820058
	308.596	0.814855	0.902693
	310.496	1.52508	1.23494
	312.397	1.97601	1.40571
	314.297	1.86988	1.36744
	316.197	1.61486	1.27077
	318.098	0.860694	0.927736
	319.998	0.586839	0.766054
	321.898	0.954706	0.977091
	323.799	1.08105	1.03974
	325.699	1.27087	1.12733
	327.599	1.29527	1.1381
	329.5	1.14702	1.07099
	331.4	0.841189	0.917163
	333.3	0.837119	0.914942
	335.201	0.920538	0.959447
	337.101	1.89522	1.37667
	339.001	1.86338	1.36506
	340.902	1.59788	1.26407
	342.802	1.71466	1.30945
	344.702	1.95385	1.3978
	346.603	2.52901	1.59029
	348.503	3.36905	1.8355
	350.403	4.13692	2.03394
	352.304	5.78228	2.40464
	354.204	8.21001	2.86531
	356.104	11.0282	3.32088
	358.005	12.2505	3.50007
	359.905	11.0615	3.32589
	361.805	8.34586	2.88892
	363.706	6.1584	2.48161
	365.606	5.0131	2.23899
	367.506	4.02417	2.00603
	369.407	3.74048	1.93403
	371.307	3.39095	1.84145
	373.207	2.73743	1.65452
	375.108	1.85373	1.36152
	377.008	1.49362	1.22214
	378.908	1.36853	1.16984
	380.808	0.975071	0.987457
	382.709	0.746377	0.863931
	384.609	1.08533	1.04179
	386.509	1.3183	1.14817
	388.41	1.18634	1.08919
	390.31	0.639558	0.799724
	392.21	0.427424	0.653777
	394.111	0.319047	0.564843
	396.011	0.68055	0.824954
	397.911	0.502769	0.709062
	399.812	0.127805	0.357498
	401.712	-0.0385823	0.196424
	403.612	0.522621	0.722925
	405.513	1.26968	1.1268
	407.413	0.957758	0.978651
	409.313	0.590314	0.768319
	411.214	0.51013	0.714234
	413.114	0.704366	0.839265
	415.014	0.50062	0.707545
	416.915	0.753374	0.867971
	418.815	0.656312	0.810131
	420.715	1.00982	1.0049
	422.616	0.84504	0.919261
	424.516	0.711306	0.843389
	426.416	0.796469	0.892451
	428.317	0.34248	0.585218
	430.217	0.434966	0.659519
	432.117	0.735809	0.857793
	434.018	1.16601	1.07982
	435.918	1.21521	1.10237
	437.818	0.267878	0.51757
	439.719	0.0574273	0.23964
	441.619	0.0170753	0.130672
	443.519	0.763968	0.874053
	445.42	0.799789	0.894309
	447.32	0.896431	0.946801
	449.22	0.820037	0.905559
	451.121	0.998343	0.999171
	453.021	1.2363	1.11189
	454.921	1.07123	1.035
	456.822	0.867027	0.931143
	458.722	0.863823	0.929421
	460.622	0.906118	0.951903
	462.523	0.52683	0.72583
	464.423	0.0732968	0.270734
	466.323	-0.163208	0.40399
	468.224	0.251956	0.501952
	470.124	0.903074	0.950302
	472.024	0.960786	0.980197
	473.924	1.09922	1.04844
	475.825	0.508702	0.713234
	477.725	0.237403	0.48724
	479.625	0.194066	0.440529
	481.526	-0.19936	0.446497
	483.426	0.0450716	0.212301
	485.326	0.0954211	0.308903
	487.227	0.684062	0.82708
	489.127	0.64569	0.803548
	491.027	0.595879	0.771932
	492.928	0.492826	0.702015
	494.828	1.23454	1.1111
	496.728	1.01921	1.00956
	498.629	0.674882	0.821512
	500.529	0.291203	0.539632
	502.429	0.825711	0.908687
	504.33	0.950239	0.974802
	506.23	0.656872	0.810476
	508.13	0.31556	0.561747
	510.031	0.570877	0.755564
	511.931	0.940988	0.970046
	513.831	1.23363	1.11069
	515.732	1.58814	1.26021
	517.632	1.81368	1.34673
	519.532	1.58196	1.25776
	521.433	1.69336	1.30129
	523.333	1.39379	1.18059
	525.233	1.7326	1.31628
	527.134	0.814288	0.902379
	529.034	0.530154	0.728117
	530.934	-0.0401293	0.200323
	532.835	0.250074	0.500074
	534.735	0.0207425	0.144023
	536.635	-0.0818631	0.286117
	538.536	0.0540408	0.232467
	540.436	-0.150404	0.387819
	542.336	0.12632	0.355415
	544.237	0.312122	0.558679
	546.137	1.02315	1.01151
	548.037	1.49006	1.22068
	549.938	1.46318	1.20962
	551.838	1.19462	1.09299
	553.738	1.0505	1.02494
	555.639	1.39166	1.17968
	557.539	0.962469	0.981055
	559.439	0.752456	0.867442
	561.34	0.78508	0.886047
	563.24	1.10319	1.05033
	565.14	1.23804	1.11267
	567.041	1.43642	1.19851
	568.941	1.14399	1.06957
	570.841	0.287656	0.536336
	572.741	-0.20023	0.447471
	574.642	0.134032	0.366104
	576.542	0.662448	0.813909
	578.442	1.0024	1.0012
	580.343	1.1615	1.07773
	582.243	1.2591	1.1221
	584.143	1.07111	1.03494
	586.044	1.017	1.00846
	587.944	1.28638	1.13418
	589.844	1.77828	1.33352
	591.745	2.355	1.5346
	593.645	2.14067	1.4631
	595.545	1.66889	1.29186
	597.446	2.07736	1.44131
	599.346	2.22671	1.49222
	601.246	2.29658	1.51545
	603.147	1.4259	1.19411
	605.047	0.759937	0.871744
	606.947	0.433425	0.65835
	608.848	0.404312	0.635856
	610.748	0.683357	0.826654
	612.648	0.869395	0.932413
	614.549	0.950684	0.97503
	616.449	0.798982	0.893858
	618.349	0.244378	0.494346
	620.25	-0.194412	0.440922
	622.15	-0.0144685	0.120285
	624.05	0.121583	0.348688
	625.951	-0.0577606	0.240334
	627.851	0.0600664	0.245084
	629.751	0.162724	0.403391
	631.652	0.21908	0.46806
	633.552	0.109072	0.330261
	635.452	0.112648	0.33563
	637.353	0.141325	0.375933
	639.253	-0.0492339	0.221887
	641.153	-0.085473	0.292358
	643.054	0.309523	0.556348
	644.954	0.716141	0.846251
	646.854	1.51255	1.22986
	648.755	1.99898	1.41385
	650.655	3.02223	1.73846
	652.555	4.27397	2.06736
	654.456	6.00797	2.45112
	656.356	6.76394	2.60076
	658.256	7.01604	2.64878
	660.157	5.91574	2.43223
	662.057	4.30258	2.07427
	663.957	2.42601	1.55757
	665.857	0.810443	0.900246
	667.758	-0.0400904	0.200226
	669.658	-0.00240951	0.0490868
	671.558	0.508463	0.713066
	673.459	0.819125	0.905055
	675.359	0.64907	0.805649
	677.259	0.7672	0.875899
	679.16	0.831763	0.91201
	681.06	0.774873	0.880269
	682.96	1.3361	1.1559
	684.861	2.40993	1.55239
	686.761	3.73949	1.93378
	688.661	5.03997	2.24499
	690.562	6.42092	2.53395
	692.462	7.71113	2.77689
	694.362	9.01996	3.00332
	696.263	10.1652	3.1883
	698.163	10.7656	3.2811
	700.063	11.3867	3.37441
	701.964	11.8507	3.44249
	703.864	12.9577	3.59968
	705.764	14.8559	3.85433
	707.665	18.2425	4.27112
	709.565	22.9979	4.79561
	711.465	28.8241	5.3688
	713.366	36.6716	6.05571
	715.266	43.2467	6.57622
	717.166	49.922	7.06555
	719.067	51.5421	7.17928
	720.967	49.5713	7.04069
	722.867	44.1828	6.64702
	724.768	37.9843	6.16314
	726.668	31.2694	5.5919
	728.568	25.3328	5.03317
	730.469	20.4314	4.52011
	732.369	16.3673	4.04565
	734.269	13.2611	3.64158
	736.17	10.1955	3.19304
	738.07	8.18157	2.86034
	739.97	6.78535	2.60487
	741.871	6.13786	2.47747
	743.771	5.53955	2.35362
	745.671	4.52006	2.12604
	747.572	3.72776	1.93074
	749.472	3.27903	1.81081
	751.372	2.8921	1.70062
	753.273	2.68085	1.63733
	755.173	2.31419	1.52125
	757.073	2.04558	1.43024
	758.973	1.56401	1.2506
	760.874	1.23671	1.11207
	762.774	1.04834	1.02388
	764.674	0.969133	0.984445
	766.575	1.25721	1.12125
	768.475	1.02875	1.01427
	770.375	0.479441	0.692417
	772.276	0.640307	0.800192
	774.176	0.740797	0.860696
	776.076	0.810859	0.900477
	777.977	0.488441	0.698886
	779.877	0.321361	0.566887
	781.777	0.0986495	0.314085
	783.678	0.20698	0.45495
	785.578	0.151379	0.389075
	787.478	0.0157219	0.125387
	789.379	-0.0260993	0.161553
	791.279	0.220934	0.470036
	793.179	0.480703	0.693328
	795.08	0.530137	0.728105
	796.98	0.587367	0.766398
	798.88	1.08098	1.0397
	800.781	1.10809	1.05266
	802.681	0.722849	0.850205
	804.581	0.343741	0.586295
	806.482	0.14114	0.375686
	808.382	0.38492	0.620419
	810.282	0.762431	0.873173
	812.183	0.762386	0.873147
	814.083	0.659072	0.811833
	815.983	0.541872	0.73612
	817.884	0.0475501	0.21806
	819.784	-0.0909239	0.301536
	821.684	-0.0704351	0.265396
	823.585	0.15691	0.396119
	825.485	0.454601	0.674241
	827.385	0.473534	0.688138
	829.286	0.437692	0.661583
	831.186	0.432792	0.657869
	833.086	0.418533	0.646941
	834.987	0.653377	0.808317
	836.887	0.510703	0.714635
	838.787	0.226828	0.476265
	840.688	-0.292933	0.541233
	842.588	-0.158779	0.398471
	844.488	0.0507588	0.225297
	846.389	0.319535	0.565275
	848.289	0.276248	0.525593
	850.189	0.15083	0.388369
	852.089	-0.168482	0.410465
	853.99	-0.27513	0.524528
	855.89	0.0356894	0.188916
	857.79	0.330976	0.575305
	859.691	0.154462	0.393016
	861.591	0.152283	0.390234
	863.491	0.131164	0.362166
	865.392	0.111586	0.334044
	867.292	0.064796	0.254551
	869.192	0.188057	0.433655
	871.093	0.323314	0.568607
	872.993	0.482043	0.694293
	874.893	0.266364	0.516105
	876.794	0.287319	0.536021
	878.694	-0.0547326	0.23395
	880.594	-0.132514	0.364025
	882.495	-0.0916665	0.302765
	884.395	0.369625	0.607968
	886.295	0.632346	0.795202
	888.196	0.643579	0.802234
	890.096	0.134873	0.36725
	891.996	-0.271188	0.520757
	893.897	-0.30869	0.555599
	895.797	-0.192526	0.438778
	897.697	0.223974	0.473259
	899.598	0.579563	0.76129
	901.498	0.736461	0.858173
	903.398	0.928305	0.963486
	905.299	1.24488	1.11574
	907.199	2.17867	1.47603
	909.099	3.06521	1.75077
	911	3.7233	1.92959
	912.9	4.43295	2.10546
	914.8	5.31218	2.30482
	916.701	6.35519	2.52095
	918.601	7.77787	2.78888
	920.501	9.39452	3.06505
	922.402	11.3391	3.36736
	924.302	13.8075	3.71584
	926.202	17.3514	4.16551
	928.103	21.7345	4.66202
	930.003	27.158	5.21133
	931.903	34.585	5.8809
	933.804	45.3099	6.73126
	935.704	59.5583	7.7174
	937.604	77.9946	8.83146
	939.505	101.552	10.0773
	941.405	132.916	11.5289
	943.305	167.638	12.9475
	945.206	205.248	14.3265
	947.106	238.847	15.4547
	949.006	265.411	16.2914
	950.906	280.815	16.7575
	952.807	285.369	16.8929
	954.707	281.078	16.7654
	956.607	269.613	16.4199
	958.508	252.186	15.8804
	960.408	232.344	15.2428
	962.308	212.464	14.5762
	964.209	193.493	13.9102
	966.109	176.166	13.2727
	968.009	160.678	12.6759
	969.91	148.132	12.171
	971.81	137.453	11.724
	973.71	129.577	11.3832
	975.611	123.187	11.099
	977.511	118.566	10.8888
	979.411	114.148	10.684
	981.312	110.785	10.5255
	983.212	109.077	10.444
	985.112	107.478	10.3671
	987.013	107.069	10.3474
	988.913	105.596	10.276
	990.813	102.482	10.1233
	992.714	97.5219	9.87532
	994.614	91.4785	9.56444
	996.514	84.4653	9.1905
	998.415	77.6726	8.81321
	1000.31	70.685	8.40744
	1002.22	64.2739	8.0171
	1004.12	57.8855	7.60825
	1006.02	52.1639	7.22246
	1007.92	46.3224	6.80606
	1009.82	40.2739	6.34617
	1011.72	34.5299	5.87622
	1013.62	29.5357	5.43467
	1015.52	25.0863	5.00862
	1017.42	20.6554	4.54482
	1019.32	16.7529	4.09303
	1021.22	13.4801	3.67152
	1023.12	10.6741	3.26712
	1025.02	8.56978	2.92742
	1026.92	6.63358	2.57557
	1028.82	5.09776	2.25782
	1030.72	3.68321	1.91917
	1032.62	2.74793	1.65769
	1034.52	1.84114	1.35688
	1036.42	0.819428	0.905223
	1038.32	0.177829	0.421698
	1040.22	-0.294859	0.543009
	1042.12	-0.893203	0.945094
	1044.02	-1.25067	1.11833
	1045.92	-1.22451	1.10658
	1047.82	-0.765095	0.874697
	1049.72	-0.681518	0.825541
	1051.62	-0.603156	0.776631
	1053.52	-0.512263	0.715725
	1055.42	0.142516	0.377512
	1057.32	1.16252	1.0782
	1059.23	2.53429	1.59195
	1061.13	3.37399	1.83684
	1063.03	3.91075	1.97756
	1064.93	4.42632	2.10388
	1066.83	4.4933	2.11974
	1068.73	4.23399	2.05767
	1070.63	3.9388	1.98464
	1072.53	3.92411	1.98094
	1074.43	3.94436	1.98604
	1076.33	3.59446	1.8959
	1078.23	3.11929	1.76615
	1080.13	2.63842	1.62432
	1082.03	2.30057	1.51676
	1083.93	2.17267	1.474
	1085.83	2.03623	1.42696
	1087.73	2.14694	1.46524
	1089.63	2.46751	1.57083
	1091.53	2.82897	1.68196
	1093.43	2.83773	1.68456
	1095.33	3.14266	1.77275
	1097.23	3.14865	1.77444
	1099.13	3.39312	1.84204
	1101.03	3.54602	1.88309
	1102.93	4.02937	2.00733
	1104.83	3.68091	1.91857
	1106.73	3.30464	1.81787
	1108.63	3.28059	1.81124
	1110.53	3.60055	1.89751
	1112.43	3.98589	1.99647
	1114.33	4.07445	2.01853
	1116.23	4.07813	2.01944
	1118.14	3.98547	1.99636
	1120.04	4.07185	2.01788
	1121.94	4.39569	2.09659
	1123.84	4.71542	2.1715
	1125.74	5.26267	2.29405
	1127.64	5.55508	2.35692
	1129.54	6.2262	2.49524
	1131.44	6.91099	2.62888
	1133.34	7.63411	2.76299
	1135.24	7.70863	2.77644
	1137.14	7.76757	2.78704
	1139.04	7.61823	2.76011
	1140.94	7.78129	2.7895
	1142.84	7.66397	2.76839
	1144.74	7.23673	2.69012
	1146.64	6.82653	2.61276
	1148.54	6.28723	2.50743
	1150.44	5.61414	2.36942
	1152.34	4.88287	2.20972
	1154.24	3.95338	1.98831
	1156.14	3.47485	1.86409
	1158.04	2.71449	1.64757
	1159.94	1.93835	1.39225
	1161.84	1.15255	1.07357
	1163.74	0.937163	0.968072
	1165.64	0.764857	0.874561
	1167.54	0.627584	0.792202
	1169.44	0.265039	0.51482
	1171.34	0.0940483	0.306673
	1173.24	0.165642	0.406992
	1175.15	-0.00502801	0.0709084
	1177.05	-0.431766	0.657089
	1178.95	-1.12408	1.06023
	1180.85	-1.13851	1.06701
	1182.75	-0.650539	0.80656
	1184.65	-0.0953329	0.30876
	1186.55	0.158643	0.398301
	1188.45	-0.0241478	0.155396
	1190.35	0.159892	0.399865
	1192.25	0.420689	0.648606
	1194.15	0.699585	0.836412
	1196.05	1.44329	1.20137
	1197.95	2.28661	1.51215
	1199.85	3.52959	1.87872
	1201.75	4.82387	2.19633
	1203.65	6.0414	2.45793
	1205.55	7.01773	2.6491
	1207.45	8.49143	2.91401
	1209.35	10.479	3.23713
	1211.25	12.9338	3.59636
	1213.15	16.1624	4.02025
	1215.05	19.6962	4.43804
	1216.95	24.7538	4.97532
	1218.85	30.5466	5.5269
	1220.75	38.8427	6.23239
	1222.65	48.5386	6.96697
	1224.55	60.6649	7.78876
	1226.45	77.1281	8.78226
	1228.35	96.8166	9.83954
	1230.25	122.524	11.0691
	1232.15	153.194	12.3772
	1234.06	189.176	13.7541
	1235.96	231.095	15.2018
	1237.86	277.641	16.6626
	1239.76	326.641	18.0732
	1241.66	374.311	19.3471
	1243.56	415.128	20.3747
	1245.46	442.718	21.0409
	1247.36	456.238	21.3597
	1249.26	451.811	21.2558
	1251.16	431.132	20.7637
	1253.06	398.227	19.9556
	1254.96	355.011	18.8417
	1256.86	308.22	17.5562
	1258.76	263.306	16.2267
	1260.66	219.311	14.8092
	1262.56	180.784	13.4456
	1264.46	145.268	12.0527
	1266.36	117.014	10.8173
	1268.26	94.078	9.69938
	1270.16	75.8493	8.70915
	1272.06	62.165	7.88448
	1273.96	51.8562	7.20113
	1275.86	44.383	6.66206
	1277.76	38.917	6.23835
	1279.66	34.1744	5.84589
	1281.56	30.7216	5.5427
	1283.46	28.1127	5.30214
	1285.36	26.2557	5.12403
	1287.26	24.1233	4.91155
	1289.16	22.8008	4.77502
	1291.06	21.5228	4.63927
	1292.97	20.5476	4.53295
	1294.87	19.4917	4.41494
	1296.77	18.8571	4.34248
	1298.67	17.9275	4.23409
	1300.57	16.8294	4.10236
	1302.47	15.8435	3.98039
	1304.37	14.9917	3.87192
	1306.27	14.2938	3.78071
	1308.17	13.5107	3.67569
	1310.07	12.2847	3.50495
	1311.97	11.1545	3.33983
	1313.87	10.1075	3.17923
	1315.77	9.17783	3.02949
	1317.67	8.46773	2.90994
	1319.57	7.81698	2.79589
	1321.47	7.58206	2.75355
	1323.37	7.42538	2.72496
	1325.27	7.0241	2.6503
	1327.17	6.6833	2.58521
	1329.07	6.27479	2.50495
	1330.97	6.33301	2.51655
	1332.87	6.37996	2.52586
	1334.77	6.46959	2.54354
	1336.67	6.39437	2.52871
	1338.57	6.50845	2.55117
	1340.47	6.71442	2.59122
	1342.37	6.58314	2.56576
	1344.27	6.6583	2.58037
	1346.17	6.89868	2.62653
	1348.07	7.46103	2.73149
	1349.98	7.57442	2.75217
	1351.88	7.83824	2.79969
	1353.78	8.09186	2.84462
	1355.68	7.87741	2.80667
	1357.58	7.72249	2.77894
	1359.48	7.59385	2.75569
	1361.38	7.86387	2.80426
	1363.28	7.65005	2.76587
	1365.18	7.1982	2.68295
	1367.08	6.69827	2.5881
	1368.98	6.35705	2.52132
	1370.88	5.88635	2.42618
	1372.78	5.40551	2.32498
	1374.68	4.87861	2.20876
	1376.58	4.32417	2.07946
	1378.48	3.9054	1.97621
	1380.38	3.57126	1.88978
	1382.28	3.17682	1.78236
	1384.18	2.76792	1.66371
	1386.08	2.08943	1.44549
	1387.98	1.67249	1.29325
	1389.88	1.1607	1.07736
	1391.78	0.930299	0.96452
	1393.68	0.770333	0.877686
	1395.58	0.59079	0.768629
	1397.48	0.374615	0.612058
	1399.38	-0.00335165	0.0578934
	1401.28	-0.62923	0.79324
	1403.18	-0.926155	0.96237
	1405.08	-0.817251	0.904019
	1406.98	-0.625765	0.791053
	1408.89	-0.125143	0.353756
	1410.79	0.321898	0.567361
	1412.69	1.16448	1.07911
	1414.59	1.40487	1.18527
	1416.49	2.02246	1.42213
	1418.39	2.52757	1.58983
	1420.29	3.09601	1.75955
	1422.19	2.86672	1.69314
	1424.09	3.1517	1.7753
	1425.99	3.39312	1.84204
	1427.89	3.87905	1.96953
	1429.79	4.32767	2.08031
	1431.69	5.11075	2.2607
	1433.59	5.6704	2.38126
	1435.49	5.97139	2.44364
	1437.39	6.14801	2.47952
	1439.29	6.50946	2.55136
	1441.19	6.53683	2.55672
	1443.09	6.28117	2.50623
	1444.99	6.19058	2.48809
	1446.89	6.1766	2.48528
	1448.79	6.17788	2.48553
	1450.69	5.68982	2.38533
	1452.59	5.19754	2.27981
	1454.49	4.7183	2.17217
	1456.39	4.38467	2.09396
	1458.29	4.07917	2.0197
	1460.19	3.77934	1.94405
	1462.09	3.11559	1.7651
	1463.99	2.34332	1.53079
	1465.89	1.61375	1.27034
	1467.8	0.981071	0.99049
	1469.7	0.756641	0.869851
	1471.6	0.369083	0.607522
	1473.5	0.170888	0.413386
	1475.4	0.0196034	0.140012
	1477.3	-0.127694	0.357343
	1479.2	-0.180512	0.424867
	1481.1	-0.0757691	0.275262
	1483	-0.119333	0.345446
	1484.9	0.0526931	0.22955
	1486.8	0.0891134	0.298519
	1488.7	0.112758	0.335794
	1490.6	0.210474	0.458774
	1492.5	0.325736	0.570733
	1494.4	0.177059	0.420784
	1496.3	-0.234142	0.483882
	1498.2	-0.441649	0.664567
	1500.1	-0.452582	0.672742
	1502	-0.448978	0.670058
	1503.9	-0.15945	0.399312
	1505.8	0.0827891	0.287731
	1507.7	-0.0308615	0.175675
	1509.6	0.0732932	0.270727
	1511.5	-0.237315	0.48715
	1513.4	0.00274459	0.0523888
	1515.3	-0.0516954	0.227366
	1517.2	0.0354133	0.188184
	1519.1	-0.273027	0.52252
	1521	-0.199689	0.446866
	1522.9	0.0522999	0.228692
	1524.81	0.279592	0.528765
	1526.71	0.406468	0.637548
	1528.61	0.608329	0.779955
	1530.51	0.66154	0.813351
	1532.41	0.39597	0.629262
	1534.31	0.640568	0.800355
	1536.21	0.632224	0.795125
	1538.11	0.569156	0.754425
	1540.01	0.738692	0.859472
	1541.91	0.867116	0.931191
	1543.81	1.13811	1.06682
	1545.71	1.40059	1.18346
	1547.61	1.31514	1.1468
	1549.51	1.38056	1.17497
	1551.41	1.29545	1.13818
	1553.31	1.55813	1.24825
	1555.21	1.34153	1.15825
	1557.11	1.19708	1.09411
	1559.01	1.04626	1.02287
	1560.91	0.834658	0.913596
	1562.81	0.776773	0.881347
	1564.71	0.781059	0.883776
	1566.61	0.697104	0.834928
	1568.51	0.367908	0.606554
	1570.41	0.390481	0.624885
	1572.31	0.475498	0.689563
	1574.21	0.343115	0.58576
	1576.11	0.108838	0.329907
	1578.01	0.0633506	0.251696
	1579.91	0.403922	0.635549
	1581.81	0.494634	0.703302
	1583.72	0.290661	0.53913
	1585.62	0.147092	0.383526
	1587.52	0.155876	0.394812
	1589.42	0.23894	0.488815
	1591.32	-0.135392	0.367957
	1593.22	-0.0326036	0.180565
	1595.12	0.00410697	0.0640857
	1597.02	0.13391	0.365937
	1598.92	0.0410804	0.202683
	1600.82	0.30158	0.549163
	1602.72	0.809184	0.899547
	1604.62	1.48774	1.21973
	1606.52	1.79449	1.33959
	1608.42	1.69268	1.30103
	1610.32	1.38109	1.1752
	1612.22	1.86606	1.36604
	1614.12	2.15899	1.46935
	1616.02	2.90754	1.70515
	1617.92	3.92288	1.98063
	1619.82	5.00854	2.23798
	1621.72	5.81077	2.41055
	1623.62	6.48842	2.54724
	1625.52	7.35542	2.71209
	1627.42	8.30482	2.88181
	1629.32	9.65087	3.10658
	1631.22	11.2491	3.35397
	1633.12	13.0856	3.61741
	1635.02	14.8042	3.84762
	1636.92	16.8462	4.10442
	1638.82	18.9885	4.35757
	1640.73	21.0442	4.5874
	1642.63	23.2503	4.82186
	1644.53	25.1773	5.0177
	1646.43	26.74	5.17107
	1648.33	28.6706	5.35449
	1650.23	30.2948	5.50407
	1652.13	31.676	5.62814
	1654.03	32.6014	5.70976
	1655.93	33.0184	5.74617
	1657.83	33.2694	5.76796
	1659.73	32.664	5.71524
	1661.63	32.6775	5.71642
	1663.53	32.4643	5.69775
	1665.43	32.1712	5.67197
	1667.33	31.5274	5.61493
	1669.23	30.7065	5.54134
	1671.13	29.9041	5.46846
	1673.03	28.274	5.31733
	1674.93	26.8079	5.17763
	1676.83	25.9097	5.09016
	1678.73	25.0636	5.00636
	1680.63	23.8194	4.88052
	1682.53	23.1209	4.80842
	1684.43	22.2459	4.71656
	1686.33	21.3147	4.61678
	1688.23	20.4425	4.52133
	1690.13	20.0097	4.47322
	1692.03	19.7407	4.44305
	1693.93	19.3768	4.40191
	1695.83	19.0113	4.36019
	1697.73	18.2904	4.27673
	1699.64	17.7284	4.21051
	1701.54	16.8747	4.10788
	1703.44	16.0855	4.01068
	1705.34	14.9689	3.86896
	1707.24	14.3294	3.78542
	1709.14	13.2238	3.63645
	1711.04	12.1646	3.48778
	1712.94	11.0616	3.3259
	1714.84	10.2018	3.19402
	1716.74	9.07292	3.01213
	1718.64	8.37338	2.89368
	1720.54	7.26102	2.69463
	1722.44	5.96929	2.44321
	1724.34	4.83149	2.19807
	1726.24	4.40826	2.09959
	1728.14	4.38115	2.09312
	1730.04	3.76287	1.93981
	1731.94	3.12625	1.76812
	1733.84	2.55037	1.59699
	1735.74	2.37941	1.54253
	1737.64	2.30874	1.51945
	1739.54	2.20916	1.48632
	1741.44	1.91558	1.38405
	1743.34	1.81922	1.34878
	1745.24	1.88266	1.3721
	1747.14	2.32146	1.52363
	1749.04	2.66832	1.6335
	1750.94	2.33995	1.52969
	1752.84	2.07938	1.44201
	1754.74	1.86375	1.36519
	1756.64	1.91252	1.38294
	1758.55	1.9218	1.38629
	1760.45	2.09403	1.44708
	1762.35	2.36132	1.53666
	1764.25	2.44785	1.56456
	1766.15	2.5352	1.59223
	1768.05	2.47726	1.57393
	1769.95	2.32836	1.5259
	1771.85	2.19642	1.48203
	1773.75	2.21128	1.48704
	1775.65	2.33674	1.52864
	1777.55	2.69862	1.64275
	1779.45	2.60966	1.61545
	1781.35	2.63461	1.62315
	1783.25	2.912	1.70646
	1785.15	2.9241	1.71
	1787.05	3.28813	1.81332
	1788.95	3.52245	1.87682
	1790.85	4.12185	2.03023
	1792.75	4.51089	2.12389
	1794.65	4.7737	2.18488
	1796.55	5.22568	2.28597
	1798.45	5.93525	2.43624
	1800.35	6.57606	2.56438
	1802.25	7.21974	2.68696
	1804.15	7.69261	2.77356
	1806.05	8.33399	2.88686
	1807.95	9.06212	3.01034
	1809.85	9.95739	3.15553
	1811.75	11.4588	3.38508
	1813.65	13.2494	3.63998
	1815.56	15.1371	3.89064
	1817.46	16.5153	4.0639
	1819.36	18.3212	4.28033
	1821.26	20.433	4.52029
	1823.16	22.8272	4.77778
	1825.06	25.441	5.04391
	1826.96	28.3717	5.32651
	1828.86	31.2001	5.58571
	1830.76	34.0855	5.83828
	1832.66	37.3526	6.11168
	1834.56	40.3634	6.35322
	1836.46	42.958	6.55423
	1838.36	45.3769	6.73624
	1840.26	47.7511	6.91021
	1842.16	49.9391	7.06676
	1844.06	51.7637	7.1947
	1845.96	52.7049	7.25981
	1847.86	53.0888	7.28621
	1849.76	52.5822	7.25136
	1851.66	51.6595	7.18745
	1853.56	50.4379	7.10196
	1855.46	48.6634	6.97591
	1857.36	45.9561	6.77909
	1859.26	42.6628	6.53167
	1861.16	38.9638	6.2421
	1863.06	35.5429	5.96179
	1864.96	31.7347	5.63336
	1866.86	28.1605	5.30665
	1868.76	24.2693	4.92638
	1870.66	21.0176	4.58449
	1872.56	17.7178	4.20926
	1874.47	14.7735	3.84363
	1876.37	12.5905	3.54831
	1878.27	10.3755	3.2211
	1880.17	8.41007	2.90001
	1882.07	6.83422	2.61423
	1883.97	5.95393	2.44007
	1885.87	5.01252	2.23887
	1887.77	4.2743	2.06744
	1889.67	3.92499	1.98116
	1891.57	3.59986	1.89733
	1893.47	3.20785	1.79105
	1895.37	2.76374	1.66245
	1897.27	2.46403	1.56972
	1899.17	2.20942	1.48641
	1901.07	1.89795	1.37766
	1902.97	1.51872	1.23236
	1904.87	1.26088	1.12289
	1906.77	0.816151	0.903411
	1908.67	0.526005	0.725262
	1910.57	0.185422	0.430606
	1912.47	-0.0804618	0.283658
	1914.37	-0.19737	0.444264
	1916.27	-0.297689	0.545609
	1918.17	-0.294575	0.542747
	1920.07	-0.437614	0.661524
	1921.97	-0.263808	0.513623
	1923.87	0.0614058	0.247802
	1925.77	0.0688147	0.262326
	1927.67	-0.15245	0.390448
	1929.57	-0.166437	0.407966
	1931.48	-0.00763356	0.0873702
	1933.38	0.0213159	0.146
	1935.28	-0.0523027	0.228698
	1937.18	-0.0364283	0.190862
	1939.08	0.0866244	0.29432
	1940.98	0.166158	0.407625
	1942.88	0.281039	0.530131
	1944.78	0.325446	0.570478
	1946.68	0.538112	0.733561
	1948.58	0.572065	0.75635
	1950.48	0.554288	0.744505
	1952.38	0.413002	0.642652
	1954.28	0.541223	0.735679
	1956.18	0.468801	0.684691
	1958.08	0.458573	0.67718
	1959.98	0.58721	0.766296
	1961.88	0.971181	0.985485
	1963.78	0.973763	0.986794
	1965.68	0.996151	0.998074
	1967.58	1.11109	1.05408
	1969.48	1.41236	1.18843
	1971.38	1.40335	1.18463
	1973.28	1.16799	1.08074
	1975.18	0.847996	0.920867
	1977.08	0.757361	0.870265
	1978.98	0.501399	0.708095
	1980.88	0.159816	0.39977
	1982.78	0.114247	0.338004
	1984.68	0.24463	0.494601
	1986.58	0.333816	0.577768
	1988.48	0.0483487	0.219883
	1990.39	-0.140684	0.375079
	1992.29	-0.310822	0.557514
	1994.19	-0.319282	0.565051
	1996.09	-0.29523	0.543351
	1997.99	-0.243712	0.493671
	1999.89	-0.359255	0.599379
	2001.79	-0.275996	0.525353
	2003.69	-0.203546	0.451161
	2005.59	0.208641	0.456772
	2007.49	0.299932	0.54766
	2009.39	0.258567	0.508495
	2011.29	0.199183	0.446299
	2013.19	0.239035	0.488912
	2015.09	0.257853	0.507792
	2016.99	0.298679	0.546515
	2018.89	0.517253	0.719203
	2020.79	0.562269	0.749846
	2022.69	0.516191	0.718464
	2024.59	0.378997	0.615628
	2026.49	0.308541	0.555465
	2028.39	0.273586	0.523054
	2030.29	0.260978	0.51086
	2032.19	0.0936107	0.305959
	2034.09	0.0176284	0.132772
	2035.99	0.424426	0.65148
	2037.89	0.833241	0.91282
	2039.79	0.988371	0.994168
	2041.69	0.877713	0.936864
	2043.59	0.800381	0.89464
	2045.49	0.893719	0.945367
	2047.39	1.07203	1.03539
	2049.3	1.28967	1.13564
	2051.2	1.42451	1.19353
	2053.1	1.36758	1.16943
	2055	1.6609	1.28876
	2056.9	1.71847	1.31091
	2058.8	1.80412	1.34318
	2060.7	2.16457	1.47125
	2062.6	2.57331	1.60416
	2064.5	2.45901	1.56812
	2066.4	2.0618	1.4359
	2068.3	1.67719	1.29506
	2070.2	1.68509	1.29811
	2072.1	1.75011	1.32292
	2074	1.76773	1.32956
	2075.9	1.71011	1.30771
	2077.8	1.74103	1.31948
	2079.7	1.86272	1.36482
	2081.6	1.85305	1.36127
	2083.5	1.59761	1.26397
	2085.4	1.36898	1.17003
	2087.3	1.21042	1.10019
	2089.2	0.905643	0.951653
	2091.1	0.914807	0.956455
	2093	0.94743	0.97336
	2094.9	1.09272	1.04533
	2096.8	0.993109	0.996549
	2098.7	0.930679	0.964717
	2100.6	0.754428	0.868578
	2102.5	0.657727	0.811004
	2104.4	0.53342	0.730356
	2106.31	0.418658	0.647038
	2108.21	0.193521	0.439911
	2110.11	0.0536528	0.231631
	2112.01	0.168035	0.409921
	2113.91	0.339372	0.582557
	2115.81	0.393995	0.62769
	2117.71	0.259551	0.509462
	2119.61	0.424855	0.651809
	2121.51	0.506441	0.711647
	2123.41	0.752459	0.867444
	2125.31	0.900228	0.948804
	2127.21	0.819976	0.905525
	2129.11	0.796715	0.892589
	2131.01	0.456306	0.675504
	2132.91	0.31929	0.565058
	2134.81	0.141381	0.376007
	2136.71	0.067401	0.259617
	2138.61	0.132186	0.363574
	2140.51	0.0168211	0.129696
	2142.41	0.0622982	0.249596
	2144.31	0.101669	0.318856
	2146.21	0.184318	0.429323
	2148.11	-0.0803995	0.283548
	2150.01	-0.207191	0.455182
	2151.91	-0.0205306	0.143285
	2153.81	0.176116	0.419662
	2155.71	0.215536	0.464258
	2157.61	0.162464	0.403068
	2159.51	0.130775	0.361628
	2161.41	0.107864	0.328427
	2163.31	0.0416051	0.203973
	2165.22	-0.0464672	0.215562
	2167.12	0.115813	0.340313
	2169.02	0.309141	0.556005
	2170.92	0.41293	0.642596
	2172.82	0.291108	0.539545
	2174.72	0.17266	0.415523
	2176.62	0.104603	0.323424
	2178.52	0.0730327	0.270246
	2180.42	0.104865	0.323829
	2182.32	0.0123589	0.111171
	2184.22	-0.14727	0.383758
	2186.12	-0.25875	0.508675
	2188.02	-0.240899	0.490815
	2189.92	-0.0865563	0.294204
	2191.82	0.139877	0.374002
	2193.72	0.288467	0.537091
	2195.62	0.312338	0.558872
	2197.52	0.136115	0.368937
	2199.42	-0.203182	0.450757
	2201.32	-0.472064	0.687069
	2203.22	0.281087	0.530177
