Generated file C:/Users/didvk/Downloads/Dioptas_Win64_0.5.0/1_mask&dat&fxye_1position/17_ReMoB2_725psi_noRuby_S_P1_C1_D1w_109.fxye using DIOPTAS
# == pyFAI calibration ==
# Distance Sample to Detector: 0.21643023575112377 m
# PONI: 8.848e-02, 8.638e-02 m
# Rotations: 0.008179 -0.001145 -0.000000 rad
# 
# == Fit2d calibration ==
# Distance Sample-beamCenter: 216.438 mm
# Center: x=491.896, y=512.970 pix
# Tilt: 0.473 deg  TiltPlanRot: -172.032 deg
# 
# Detector Pilatus CdTe 1M	 PixelSize= 1.720e-04, 1.720e-04 m
#    Detector has a mask: True 
#    Detector has a dark current: False 
#    detector has a flat field: False 
# 
# Wavelength: 4.133e-11 m
# Mask applied: None
# Dark current applied: None
# Flat field applied: None
# Polarization factor: None
# Normalization factor: None
BANK	1	1006	1006 CONS	293.393	1.90033 0.4133 0.0 FXYE
	293.393	0.397314	0.630328
	295.294	0.377215	0.614179
	297.194	0.288096	0.536746
	299.094	0.131132	0.362122
	300.995	0.0899378	0.299896
	302.895	0.177208	0.420961
	304.795	0.221944	0.471109
	306.696	0.0661779	0.257251
	308.596	0.420609	0.648544
	310.496	0.468484	0.684459
	312.397	0.619123	0.786844
	314.297	0.395934	0.629233
	316.197	0.403331	0.635083
	318.098	0.521834	0.722381
	319.998	0.772223	0.878762
	321.898	0.653641	0.808481
	323.799	1.38441	1.17661
	325.699	1.47361	1.21392
	327.599	2.21245	1.48743
	329.5	1.77617	1.33273
	331.4	1.8536	1.36147
	333.3	1.14581	1.07042
	335.201	1.04955	1.02448
	337.101	0.742637	0.861764
	339.001	1.08956	1.04382
	340.902	1.4162	1.19004
	342.802	1.5922	1.26182
	344.702	2.10891	1.45221
	346.603	2.74435	1.65661
	348.503	3.0073	1.73416
	350.403	3.6162	1.90163
	352.304	5.34847	2.31268
	354.204	7.88707	2.80839
	356.104	11.3729	3.37237
	358.005	14.0159	3.74378
	359.905	15.4126	3.92589
	361.805	13.8729	3.72464
	363.706	11.0511	3.32432
	365.606	7.9128	2.81297
	367.506	5.38564	2.3207
	369.407	3.69961	1.92344
	371.307	3.03229	1.74135
	373.207	2.28935	1.51306
	375.108	1.68069	1.29641
	377.008	2.00678	1.41661
	378.908	2.50037	1.58126
	380.808	2.34225	1.53044
	382.709	1.54286	1.24212
	384.609	0.843103	0.918206
	386.509	0.855394	0.924875
	388.41	1.10013	1.04887
	390.31	1.33547	1.15562
	392.21	1.18336	1.08782
	394.111	1.21092	1.10042
	396.011	1.45793	1.20745
	397.911	1.53677	1.23966
	399.812	0.98051	0.990207
	401.712	0.357101	0.59758
	403.612	-0.0779269	0.279154
	405.513	-0.0117302	0.108306
	407.413	0.399863	0.632348
	409.313	0.9267	0.962652
	411.214	1.57658	1.25562
	413.114	1.36068	1.16648
	415.014	1.012	1.00598
	416.915	0.720276	0.848691
	418.815	0.516678	0.718803
	420.715	0.801079	0.89503
	422.616	1.34992	1.16186
	424.516	1.15607	1.07521
	426.416	1.12138	1.05895
	428.317	0.810072	0.90004
	430.217	1.26871	1.12637
	432.117	1.83644	1.35515
	434.018	1.62454	1.27457
	435.918	1.264	1.12428
	437.818	0.57784	0.760158
	439.719	-0.0833219	0.288655
	441.619	0.102358	0.319935
	443.519	0.14471	0.380407
	445.42	0.842577	0.91792
	447.32	1.47952	1.21635
	449.22	1.80448	1.34331
	451.121	1.63836	1.27998
	453.021	0.897062	0.947134
	454.921	0.91551	0.956823
	456.822	0.831621	0.911932
	458.722	0.35278	0.593953
	460.622	0.58397	0.76418
	462.523	0.51615	0.718436
	464.423	0.204533	0.452253
	466.323	-0.305199	0.552448
	468.224	0.209086	0.457259
	470.124	0.693115	0.832535
	472.024	1.29353	1.13734
	473.924	1.0314	1.01558
	475.825	1.15741	1.07583
	477.725	1.01472	1.00733
	479.625	1.84662	1.35891
	481.526	1.39564	1.18137
	483.426	0.968423	0.984085
	485.326	0.461191	0.67911
	487.227	0.406042	0.637215
	489.127	0.746819	0.864187
	491.027	0.945044	0.972134
	492.928	0.781915	0.88426
	494.828	0.659771	0.812263
	496.728	0.554033	0.744334
	498.629	0.656943	0.81052
	500.529	1.05725	1.02822
	502.429	1.22393	1.10631
	504.33	1.30245	1.14125
	506.23	0.875412	0.935635
	508.13	0.333325	0.577343
	510.031	0.0140689	0.118612
	511.931	0.375756	0.612989
	513.831	0.57071	0.755454
	515.732	0.920817	0.959592
	517.632	0.431517	0.6569
	519.532	0.146924	0.383307
	521.433	-0.069948	0.264477
	523.333	0.508769	0.713281
	525.233	1.32555	1.15133
	527.134	1.90112	1.37881
	529.034	1.90138	1.3789
	530.934	1.38944	1.17874
	532.835	0.982334	0.991128
	534.735	0.404838	0.636269
	536.635	0.284876	0.533738
	538.536	0.575682	0.758737
	540.436	0.402185	0.634181
	542.336	0.694983	0.833657
	544.237	0.33443	0.5783
	546.137	0.739899	0.860174
	548.037	0.399637	0.632169
	549.938	0.812999	0.901664
	551.838	0.623554	0.789654
	553.738	0.858589	0.926601
	555.639	0.335336	0.579082
	557.539	0.340351	0.583397
	559.439	-0.111702	0.334219
	561.34	-0.1454	0.381313
	563.24	0.0832776	0.288579
	565.14	0.642793	0.801744
	567.041	0.986318	0.993135
	568.941	0.660217	0.812537
	570.841	0.210639	0.458954
	572.741	0.304356	0.551684
	574.642	0.304555	0.551865
	576.542	0.289285	0.537852
	578.442	-0.0593417	0.243602
	580.343	0.380789	0.617081
	582.243	1.04157	1.02058
	584.143	1.26637	1.12533
	586.044	0.901617	0.949535
	587.944	0.55995	0.748298
	589.844	0.690471	0.830946
	591.745	1.3092	1.1442
	593.645	1.44971	1.20404
	595.545	1.39642	1.1817
	597.446	1.3065	1.14302
	599.346	1.29146	1.13643
	601.246	0.953957	0.976707
	603.147	0.736788	0.858363
	605.047	1.27139	1.12756
	606.947	1.50762	1.22785
	608.848	1.07567	1.03714
	610.748	0.799968	0.894409
	612.648	0.713649	0.844778
	614.549	1.00011	1.00005
	616.449	0.999266	0.999633
	618.349	0.567431	0.75328
	620.25	0.0721592	0.268625
	622.15	-0.250745	0.500745
	624.05	-0.238399	0.488262
	625.951	-0.0887561	0.29792
	627.851	0.424399	0.651459
	629.751	0.859802	0.927255
	631.652	0.951058	0.975222
	633.552	0.569971	0.754964
	635.452	0.476025	0.689946
	637.353	0.301808	0.54937
	639.253	0.193224	0.439572
	641.153	0.609997	0.781023
	643.054	0.454497	0.674164
	644.954	0.722357	0.849916
	646.854	0.863569	0.929284
	648.755	1.01997	1.00993
	650.655	1.39242	1.18001
	652.555	2.0398	1.42821
	654.456	3.71969	1.92865
	656.356	4.97289	2.23
	658.256	6.18509	2.48698
	660.157	6.15646	2.48122
	662.057	5.44481	2.33341
	663.957	3.8347	1.95824
	665.857	2.61911	1.61837
	667.758	1.53681	1.23968
	669.658	0.739838	0.860138
	671.558	0.307994	0.554973
	673.459	0.344966	0.587338
	675.359	0.45277	0.672882
	677.259	0.583374	0.763789
	679.16	0.615708	0.784671
	681.06	0.876263	0.936089
	682.96	0.995335	0.997665
	684.861	1.29543	1.13817
	686.761	1.95954	1.39984
	688.661	2.90165	1.70342
	690.562	4.24758	2.06097
	692.462	5.3905	2.32174
	694.362	6.56901	2.56301
	696.263	8.17379	2.85898
	698.163	9.03105	3.00517
	700.063	9.62475	3.10238
	701.964	9.79624	3.12989
	703.864	10.7389	3.27703
	705.764	11.987	3.46223
	707.665	15.3709	3.92058
	709.565	19.759	4.44511
	711.465	25.5414	5.05385
	713.366	34.1217	5.84138
	715.266	42.4971	6.51898
	717.166	53.7069	7.3285
	719.067	59.5243	7.7152
	720.967	61.5156	7.84319
	722.867	58.0719	7.62049
	724.768	52.8217	7.26785
	726.668	44.9307	6.70304
	728.568	37.8987	6.15619
	730.469	31.6672	5.62736
	732.369	25.4974	5.04949
	734.269	20.6244	4.54141
	736.17	16.3357	4.04175
	738.07	13.589	3.68632
	739.97	11.2117	3.34839
	741.871	9.61567	3.10091
	743.771	8.22729	2.86833
	745.671	6.78683	2.60515
	747.572	5.63705	2.37425
	749.472	4.83909	2.19979
	751.372	4.54747	2.13248
	753.273	4.20066	2.04955
	755.173	3.57983	1.89204
	757.073	3.02685	1.73979
	758.973	2.24202	1.49734
	760.874	2.2619	1.50396
	762.774	2.13674	1.46176
	764.674	1.9631	1.40111
	766.575	1.66552	1.29055
	768.475	1.75658	1.32536
	770.375	1.16844	1.08094
	772.276	1.01967	1.00979
	774.176	0.791809	0.889836
	776.076	0.610254	0.781188
	777.977	0.156882	0.396084
	779.877	-0.204084	0.451756
	781.777	-0.310519	0.557242
	783.678	-0.0134754	0.116084
	785.578	0.0829913	0.288082
	787.478	0.356903	0.597414
	789.379	0.0442428	0.21034
	791.279	-0.00687955	0.0829431
	793.179	0.268236	0.517915
	795.08	0.270125	0.519735
	796.98	0.633508	0.795932
	798.88	1.03881	1.01922
	800.781	1.00605	1.00302
	802.681	0.700244	0.836806
	804.581	0.356604	0.597163
	806.482	0.266249	0.515993
	808.382	0.328541	0.573185
	810.282	0.316281	0.562389
	812.183	0.0999229	0.316106
	814.083	0.0459796	0.214429
	815.983	0.407605	0.638439
	817.884	0.709723	0.84245
	819.784	0.288918	0.537511
	821.684	0.483329	0.695219
	823.585	0.619909	0.787343
	825.485	1.00625	1.00312
	827.385	0.826287	0.909003
	829.286	0.542253	0.736378
	831.186	0.709244	0.842166
	833.086	0.923013	0.960736
	834.987	1.04959	1.0245
	836.887	0.807184	0.898434
	838.787	0.352874	0.594032
	840.688	0.199684	0.446861
	842.588	0.119236	0.345305
	844.488	0.347125	0.589173
	846.389	0.227015	0.47646
	848.289	0.0119829	0.109466
	850.189	-0.459835	0.678111
	852.089	-0.130432	0.361153
	853.99	0.231866	0.481524
	855.89	0.73606	0.857939
	857.79	1.07886	1.03868
	859.691	0.661909	0.813578
	861.591	0.493274	0.702334
	863.491	0.206459	0.454377
	865.392	0.362098	0.601745
	867.292	0.313138	0.559587
	869.192	0.233027	0.482729
	871.093	-0.0896727	0.299454
	872.993	-0.309338	0.556181
	874.893	-0.527359	0.726195
	876.794	-0.441142	0.664185
	878.694	-0.740129	0.860307
	880.594	-0.381496	0.617654
	882.495	-0.32242	0.567821
	884.395	-0.0619016	0.2488
	886.295	-0.259155	0.509073
	888.196	0.0472741	0.217426
	890.096	-0.191728	0.437867
	891.996	0.0599207	0.244787
	893.897	0.11527	0.339515
	895.797	0.560771	0.748846
	897.697	0.782242	0.884445
	899.598	0.681016	0.825237
	901.498	0.767198	0.875898
	903.398	0.855815	0.925103
	905.299	1.00264	1.00132
	907.199	1.35251	1.16298
	909.099	2.1968	1.48216
	911	3.10514	1.76214
	912.9	3.67604	1.9173
	914.8	4.34451	2.08435
	916.701	5.12461	2.26376
	918.601	6.25204	2.50041
	920.501	7.59454	2.75582
	922.402	9.40047	3.06602
	924.302	11.5992	3.40576
	926.202	13.9456	3.73438
	928.103	17.283	4.15729
	930.003	20.8781	4.56926
	931.903	26.278	5.12621
	933.804	33.2128	5.76306
	935.704	42.7767	6.54039
	937.604	55.4952	7.44951
	939.505	71.4115	8.45053
	941.405	94.3963	9.71578
	943.305	122.166	11.0529
	945.206	156.763	12.5205
	947.106	193.603	13.9141
	949.006	228.898	15.1294
	950.906	259.331	16.1038
	952.807	278.2	16.6793
	954.707	288.202	16.9765
	956.607	286.494	16.9261
	958.508	276.157	16.618
	960.408	258.063	16.0643
	962.308	236.625	15.3826
	964.209	214.54	14.6472
	966.109	193.894	13.9246
	968.009	174.928	13.226
	969.91	158.652	12.5957
	971.81	145.221	12.0508
	973.71	133.875	11.5705
	975.611	124.884	11.1751
	977.511	118.318	10.8774
	979.411	113.436	10.6506
	981.312	111.213	10.5458
	983.212	110.097	10.4927
	985.112	109.71	10.4742
	987.013	110.301	10.5024
	988.913	110.553	10.5144
	990.813	109.604	10.4692
	992.714	106.826	10.3357
	994.614	102.905	10.1442
	996.514	97.5662	9.87756
	998.415	91.1736	9.54849
	1000.31	83.5556	9.14088
	1002.22	76.0825	8.72253
	1004.12	69.1317	8.31455
	1006.02	62.3574	7.89667
	1007.92	55.565	7.45419
	1009.82	48.6475	6.97478
	1011.72	42.4357	6.51427
	1013.62	36.1626	6.01353
	1015.52	30.4655	5.51956
	1017.42	25.2859	5.02851
	1019.32	21.1968	4.604
	1021.22	17.397	4.17097
	1023.12	13.9626	3.73666
	1025.02	10.9796	3.31355
	1026.92	8.58182	2.92947
	1028.82	6.72313	2.5929
	1030.72	5.53763	2.35322
	1032.62	4.13039	2.03233
	1034.52	2.90161	1.70341
	1036.42	2.15812	1.46905
	1038.32	1.67434	1.29396
	1040.22	1.15404	1.07426
	1042.12	0.349766	0.59141
	1044.02	-0.387696	0.622653
	1045.92	-0.779377	0.882823
	1047.82	-1.02834	1.01407
	1049.72	-1.20137	1.09607
	1051.62	-1.02926	1.01453
	1053.52	-0.920283	0.959314
	1055.42	-0.619564	0.787124
	1057.32	-0.740479	0.860511
	1059.23	-0.354277	0.595212
	1061.13	0.312647	0.559148
	1063.03	0.846965	0.920307
	1064.93	1.4865	1.21922
	1066.83	1.96712	1.40254
	1068.73	2.3022	1.5173
	1070.63	2.49189	1.57857
	1072.53	2.61032	1.61565
	1074.43	2.62267	1.61947
	1076.33	2.64252	1.62558
	1078.23	2.95225	1.71821
	1080.13	3.37707	1.83768
	1082.03	3.49632	1.86984
	1083.93	3.35455	1.83154
	1085.83	3.08734	1.75708
	1087.73	3.24644	1.80179
	1089.63	2.98944	1.729
	1091.53	2.5477	1.59615
	1093.43	2.09515	1.44746
	1095.33	2.14094	1.4632
	1097.23	2.22298	1.49097
	1099.13	2.14487	1.46454
	1101.03	1.92767	1.3884
	1102.93	1.99678	1.41307
	1104.83	2.0563	1.43398
	1106.73	1.74479	1.3209
	1108.63	1.80069	1.3419
	1110.53	1.79526	1.33987
	1112.43	2.44575	1.56389
	1114.33	2.82921	1.68202
	1116.23	3.21192	1.79218
	1118.14	3.16139	1.77803
	1120.04	3.27773	1.81045
	1121.94	3.66236	1.91373
	1123.84	4.29595	2.07267
	1125.74	4.92525	2.21929
	1127.64	5.96734	2.44281
	1129.54	6.17387	2.48473
	1131.44	6.82928	2.61329
	1133.34	7.20648	2.68449
	1135.24	7.7038	2.77557
	1137.14	8.08397	2.84323
	1139.04	8.57883	2.92896
	1140.94	9.13077	3.02172
	1142.84	9.06312	3.0105
	1144.74	8.87026	2.9783
	1146.64	8.25374	2.87293
	1148.54	7.46275	2.7318
	1150.44	6.82223	2.61194
	1152.34	5.66888	2.38094
	1154.24	4.97903	2.23137
	1156.14	4.02325	2.0058
	1158.04	3.62158	1.90305
	1159.94	2.77859	1.66691
	1161.84	2.331	1.52676
	1163.74	1.82643	1.35145
	1165.64	1.77037	1.33055
	1167.54	1.33389	1.15494
	1169.44	0.788825	0.888158
	1171.34	0.249107	0.499106
	1173.24	-0.0645138	0.253996
	1175.15	-0.282022	0.531058
	1177.05	-0.283914	0.532836
	1178.95	-0.434227	0.658959
	1180.85	-0.820131	0.905611
	1182.75	-0.723105	0.850356
	1184.65	-0.973584	0.986704
	1186.55	-0.71435	0.845192
	1188.45	-0.643991	0.80249
	1190.35	-0.266841	0.516567
	1192.25	0.202311	0.44979
	1194.15	0.589334	0.767681
	1196.05	1.14704	1.071
	1197.95	1.59913	1.26457
	1199.85	2.36016	1.53628
	1201.75	3.16924	1.78024
	1203.65	4.32274	2.07912
	1205.55	5.25637	2.29268
	1207.45	6.42558	2.53487
	1209.35	7.56931	2.75124
	1211.25	9.42855	3.07059
	1213.15	12.058	3.47247
	1215.05	15.3699	3.92044
	1216.95	19.1125	4.37178
	1218.85	23.2442	4.82123
	1220.75	28.763	5.36312
	1222.65	35.5253	5.96031
	1224.55	44.0254	6.63516
	1226.45	55.8185	7.47118
	1228.35	69.609	8.3432
	1230.25	88.7328	9.41981
	1232.15	112.332	10.5987
	1234.06	141.52	11.8962
	1235.96	176.728	13.2939
	1237.86	217.772	14.7571
	1239.76	263.159	16.2222
	1241.66	314.091	17.7226
	1243.56	364.868	19.1015
	1245.46	411.531	20.2862
	1247.36	445.988	21.1184
	1249.26	464.743	21.5579
	1251.16	465.155	21.5675
	1253.06	449.289	21.1964
	1254.96	419.086	20.4716
	1256.86	378.067	19.4439
	1258.76	333.133	18.2519
	1260.66	285.223	16.8886
	1262.56	241.026	15.525
	1264.46	198.603	14.0926
	1266.36	163.588	12.7901
	1268.26	132.844	11.5258
	1270.16	106.69	10.3291
	1272.06	85.8997	9.26821
	1273.96	69.6571	8.34608
	1275.86	57.3814	7.57505
	1277.76	48.3409	6.95276
	1279.66	41.3488	6.4303
	1281.56	35.7594	5.97991
	1283.46	31.5581	5.61766
	1285.36	28.389	5.32813
	1287.26	26.1098	5.10977
	1289.16	24.2525	4.92468
	1291.06	22.3856	4.73134
	1292.97	20.7516	4.55539
	1294.87	19.755	4.44466
	1296.77	19.3411	4.39785
	1298.67	18.6668	4.32051
	1300.57	17.7101	4.20834
	1302.47	16.3407	4.04236
	1304.37	15.1489	3.89216
	1306.27	13.9781	3.73873
	1308.17	13.2648	3.64208
	1310.07	12.733	3.56833
	1311.97	12.1018	3.47876
	1313.87	11.6306	3.41037
	1315.77	10.7283	3.27541
	1317.67	9.91848	3.14936
	1319.57	9.18258	3.03028
	1321.47	8.66689	2.94396
	1323.37	8.29786	2.8806
	1325.27	8.04822	2.83694
	1327.17	7.93608	2.81711
	1329.07	7.96645	2.82249
	1330.97	7.91007	2.81249
	1332.87	7.7837	2.78993
	1334.77	7.80268	2.79333
	1336.67	7.58661	2.75438
	1338.57	7.24506	2.69167
	1340.47	7.18221	2.67996
	1342.37	7.71972	2.77844
	1344.27	8.11357	2.84843
	1346.17	8.40379	2.89893
	1348.07	8.76694	2.9609
	1349.98	9.2265	3.03751
	1351.88	9.55403	3.09096
	1353.78	9.48167	3.07923
	1355.68	9.73734	3.12047
	1357.58	9.87778	3.14289
	1359.48	10.2373	3.19959
	1361.38	10.3955	3.22421
	1363.28	10.3837	3.22237
	1365.18	9.90998	3.14801
	1367.08	9.49265	3.08101
	1368.98	8.7775	2.96268
	1370.88	8.07671	2.84196
	1372.78	7.26602	2.69556
	1374.68	6.34837	2.5196
	1376.58	5.51204	2.34777
	1378.48	5.07727	2.25328
	1380.38	4.90981	2.21581
	1382.28	4.23449	2.05779
	1384.18	3.31426	1.82051
	1386.08	2.6209	1.61892
	1387.98	2.32407	1.52449
	1389.88	2.04361	1.42955
	1391.78	1.55342	1.24636
	1393.68	1.15721	1.07574
	1395.58	0.572104	0.756375
	1397.48	0.222401	0.471594
	1399.38	-0.112068	0.334765
	1401.28	-0.365971	0.604955
	1403.18	-0.368884	0.607358
	1405.08	-0.646067	0.803783
	1406.98	-0.667884	0.817242
	1408.89	-0.953742	0.976597
	1410.79	-0.732478	0.855849
	1412.69	-0.599334	0.774167
	1414.59	0.0859494	0.293171
	1416.49	0.526581	0.725659
	1418.39	1.11527	1.05606
	1420.29	1.31098	1.14498
	1422.19	1.2628	1.12374
	1424.09	1.5762	1.25547
	1425.99	2.20188	1.48387
	1427.89	2.80751	1.67556
	1429.79	3.49292	1.86894
	1431.69	3.96791	1.99196
	1433.59	4.79249	2.18918
	1435.49	5.44737	2.33396
	1437.39	6.15122	2.48017
	1439.29	6.77282	2.60246
	1441.19	7.50178	2.73894
	1443.09	8.07475	2.84161
	1444.99	8.13464	2.85213
	1446.89	7.76512	2.7866
	1448.79	7.06691	2.65837
	1450.69	6.88004	2.62298
	1452.59	6.59141	2.56737
	1454.49	6.51192	2.55185
	1456.39	5.91195	2.43145
	1458.29	5.30701	2.30369
	1460.19	4.7829	2.18699
	1462.09	4.16738	2.04142
	1463.99	3.59619	1.89636
	1465.89	2.84815	1.68765
	1467.8	2.32686	1.52541
	1469.7	1.96286	1.40102
	1471.6	1.37911	1.17436
	1473.5	1.04056	1.02008
	1475.4	0.548102	0.740339
	1477.3	0.577888	0.760189
	1479.2	0.347556	0.589539
	1481.1	0.189408	0.435211
	1483	-0.0103887	0.101925
	1484.9	-0.315358	0.561567
	1486.8	-0.486422	0.697439
	1488.7	-0.409366	0.639817
	1490.6	-0.0597555	0.244449
	1492.5	0.538034	0.733508
	1494.4	0.41496	0.644174
	1496.3	0.0924466	0.30405
	1498.2	-0.227352	0.476814
	1500.1	-0.189393	0.435193
	1502	-0.0865164	0.294137
	1503.9	-0.0901944	0.300324
	1505.8	-0.0230862	0.151941
	1507.7	-0.211527	0.459921
	1509.6	-0.0357139	0.188981
	1511.5	0.217091	0.46593
	1513.4	0.435184	0.659685
	1515.3	0.34745	0.589449
	1517.2	0.200536	0.447812
	1519.1	0.120421	0.347017
	1521	0.206373	0.454283
	1522.9	0.25031	0.500309
	1524.81	0.360152	0.600127
	1526.71	0.358419	0.598681
	1528.61	0.331546	0.5758
	1530.51	-0.0813107	0.28515
	1532.41	-0.0259026	0.160943
	1534.31	0.248388	0.498385
	1536.21	0.574996	0.758285
	1538.11	0.492109	0.701505
	1540.01	0.303504	0.550912
	1541.91	0.121976	0.349251
	1543.81	0.229233	0.478782
	1545.71	0.503978	0.709914
	1547.61	0.68397	0.827025
	1549.51	0.718984	0.847929
	1551.41	0.858905	0.926771
	1553.31	0.934986	0.966947
	1555.21	0.888176	0.942431
	1557.11	0.705342	0.839847
	1559.01	0.779157	0.882698
	1560.91	0.695701	0.834087
	1562.81	0.878068	0.937053
	1564.71	0.895441	0.946277
	1566.61	0.915239	0.956681
	1568.51	0.589957	0.768086
	1570.41	0.407701	0.638515
	1572.31	0.433095	0.658099
	1574.21	0.286064	0.534849
	1576.11	0.352849	0.594011
	1578.01	0.0602791	0.245518
	1579.91	0.0111143	0.105424
	1581.81	0.00531406	0.0728976
	1583.72	0.234859	0.484622
	1585.62	0.216746	0.46556
	1587.52	0.0660893	0.257078
	1589.42	0.00960668	0.0980137
	1591.32	0.0481835	0.219507
	1593.22	-0.129447	0.359788
	1595.12	-0.0663988	0.25768
	1597.02	-0.0667324	0.258326
	1598.92	0.0223475	0.149491
	1600.82	0.127111	0.356526
	1602.72	0.22483	0.474163
	1604.62	0.602139	0.775976
	1606.52	0.494211	0.703001
	1608.42	0.739389	0.859877
	1610.32	0.966505	0.98311
	1612.22	1.63871	1.28012
	1614.12	1.97096	1.40391
	1616.02	2.42928	1.55861
	1617.92	2.68093	1.63736
	1619.82	3.20313	1.78973
	1621.72	3.59871	1.89703
	1623.62	4.42381	2.10329
	1625.52	5.33732	2.31026
	1627.42	6.27118	2.50423
	1629.32	7.21736	2.68651
	1631.22	8.32684	2.88563
	1633.12	9.54553	3.08958
	1635.02	10.7597	3.2802
	1636.92	12.1815	3.4902
	1638.82	13.9934	3.74078
	1640.73	15.9289	3.9911
	1642.63	18.1407	4.25918
	1644.53	19.7668	4.44599
	1646.43	21.2595	4.6108
	1648.33	23.1778	4.81433
	1650.23	24.9473	4.99473
	1652.13	26.3691	5.13508
	1654.03	28.0041	5.29189
	1655.93	29.2603	5.40928
	1657.83	30.0429	5.48114
	1659.73	30.1406	5.49004
	1661.63	30.2028	5.49571
	1663.53	30.0826	5.48476
	1665.43	29.9798	5.47538
	1667.33	29.9968	5.47694
	1669.23	29.4047	5.42261
	1671.13	28.4767	5.33636
	1673.03	27.7401	5.26689
	1674.93	27.3662	5.23127
	1676.83	27.1083	5.20656
	1678.73	26.2944	5.12781
	1680.63	25.4133	5.04116
	1682.53	24.5968	4.95952
	1684.43	23.7776	4.87623
	1686.33	22.7558	4.7703
	1688.23	21.7463	4.66329
	1690.13	20.9158	4.57338
	1692.03	20.0071	4.47293
	1693.93	19.363	4.40034
	1695.83	18.7943	4.33524
	1697.73	18.257	4.27282
	1699.64	18.0364	4.24693
	1701.54	18.21	4.26731
	1703.44	18.3619	4.28508
	1705.34	17.6322	4.19907
	1707.24	16.8047	4.09936
	1709.14	16.0019	4.00024
	1711.04	15.9411	3.99263
	1712.94	15.4732	3.9336
	1714.84	14.5472	3.81408
	1716.74	13.2895	3.64548
	1718.64	12.0475	3.47095
	1720.54	10.7572	3.27982
	1722.44	9.3951	3.06514
	1724.34	8.28592	2.87853
	1726.24	7.4607	2.73143
	1728.14	6.77971	2.60379
	1730.04	5.71463	2.39053
	1731.94	4.98855	2.23351
	1733.84	4.32019	2.07851
	1735.74	4.0268	2.00669
	1737.64	3.62669	1.90439
	1739.54	3.30415	1.81773
	1741.44	2.646	1.62665
	1743.34	2.23233	1.4941
	1745.24	1.97776	1.40633
	1747.14	2.09013	1.44573
	1749.04	1.95538	1.39835
	1750.94	1.80805	1.34464
	1752.84	1.76458	1.32837
	1754.74	2.0093	1.4175
	1756.64	1.77405	1.33193
	1758.55	1.52131	1.23341
	1760.45	1.4733	1.2138
	1762.35	1.48828	1.21995
	1764.25	1.71102	1.30806
	1766.15	2.15445	1.46781
	1768.05	2.36379	1.53746
	1769.95	2.12918	1.45917
	1771.85	1.91493	1.38381
	1773.75	1.9449	1.3946
	1775.65	1.96626	1.40223
	1777.55	2.1092	1.45231
	1779.45	2.08309	1.44329
	1781.35	2.47579	1.57346
	1783.25	2.73095	1.65256
	1785.15	2.6015	1.61292
	1787.05	2.40924	1.55217
	1788.95	2.85764	1.69046
	1790.85	3.22977	1.79716
	1792.75	3.68609	1.91992
	1794.65	3.97064	1.99265
	1796.55	4.14151	2.03507
	1798.45	4.27931	2.06865
	1800.35	4.74369	2.178
	1802.25	5.63842	2.37454
	1804.15	6.06196	2.4621
	1806.05	6.41335	2.53246
	1807.95	6.94382	2.63511
	1809.85	8.14005	2.85308
	1811.75	9.09859	3.01639
	1813.65	10.2131	3.19579
	1815.56	11.4464	3.38325
	1817.46	12.7855	3.57568
	1819.36	14.4179	3.79709
	1821.26	15.9327	3.99157
	1823.16	17.7646	4.21481
	1825.06	19.7897	4.44856
	1826.96	22.1029	4.70137
	1828.86	24.2045	4.91981
	1830.76	26.5169	5.14946
	1832.66	29.0216	5.38717
	1834.56	31.5653	5.6183
	1836.46	34.3854	5.8639
	1838.36	36.7104	6.05891
	1840.26	39.1779	6.25923
	1842.16	41.3153	6.4277
	1844.06	43.7003	6.61062
	1845.96	45.5719	6.75069
	1847.86	47.2036	6.87049
	1849.76	48.3662	6.95458
	1851.66	49.0623	7.00445
	1853.56	49.0657	7.00469
	1855.46	48.791	6.98506
	1857.36	48.2257	6.94447
	1859.26	47.0184	6.857
	1861.16	44.9885	6.70735
	1863.06	42.7728	6.54009
	1864.96	39.8855	6.31549
	1866.86	36.4479	6.03721
	1868.76	32.9587	5.74097
	1870.66	29.4662	5.42827
	1872.56	25.9032	5.08951
	1874.47	22.2871	4.72092
	1876.37	18.8552	4.34225
	1878.27	15.704	3.96283
	1880.17	13.0402	3.61113
	1882.07	11.2206	3.34971
	1883.97	9.41268	3.06801
	1885.87	7.57691	2.75262
	1887.77	6.22786	2.49557
	1889.67	5.42527	2.32922
	1891.57	4.52949	2.12826
	1893.47	4.10511	2.02611
	1895.37	3.74931	1.93631
	1897.27	3.81384	1.95291
	1899.17	3.52623	1.87783
	1901.07	3.29917	1.81636
	1902.97	2.73864	1.65488
	1904.87	2.16668	1.47197
	1906.77	1.37633	1.17317
	1908.67	1.18528	1.08871
	1910.57	0.843927	0.918655
	1912.47	0.666462	0.816371
	1914.37	0.322863	0.56821
	1916.27	0.23912	0.488999
	1918.17	0.042227	0.205492
	1920.07	-0.139921	0.37406
	1921.97	-0.153344	0.391592
	1923.87	0.0127226	0.112795
	1925.77	0.17743	0.421224
	1927.67	0.147521	0.384085
	1929.57	-0.235913	0.485709
	1931.48	-0.267853	0.517545
	1933.38	-0.116207	0.340892
	1935.28	-0.0274726	0.165749
	1937.18	-0.0973237	0.311967
	1939.08	-0.32046	0.566092
	1940.98	-0.148436	0.385274
	1942.88	0.0773545	0.278127
	1944.78	0.285681	0.534491
	1946.68	0.312951	0.55942
	1948.58	0.110546	0.332484
	1950.48	0.117646	0.342996
	1952.38	0.264767	0.514555
	1954.28	0.491355	0.700967
	1956.18	0.460805	0.678826
	1958.08	0.557883	0.746916
	1959.98	0.836991	0.914872
	1961.88	1.02071	1.0103
	1963.78	0.938705	0.968868
	1965.68	0.776965	0.881456
	1967.58	0.920079	0.959207
	1969.48	1.13585	1.06576
	1971.38	1.25716	1.12123
	1973.28	1.05429	1.02679
	1975.18	1.062	1.03053
	1977.08	0.910765	0.95434
	1978.98	0.869593	0.93252
	1980.88	0.926915	0.962764
	1982.78	0.748292	0.865039
	1984.68	0.557948	0.746959
	1986.58	0.529084	0.727382
	1988.48	0.43813	0.661914
	1990.39	0.272747	0.522251
	1992.29	0.163526	0.404384
	1994.19	0.0956986	0.309352
	1996.09	0.0432852	0.208051
	1997.99	-0.100215	0.316568
	1999.89	-0.191393	0.437485
	2001.79	-0.199616	0.446784
	2003.69	-0.139866	0.373986
	2005.59	-0.159759	0.399698
	2007.49	-0.0793654	0.281719
	2009.39	-0.0202234	0.142209
	2011.29	0.0624558	0.249912
	2013.19	0.0818894	0.286163
	2015.09	0.206547	0.454475
	2016.99	-0.00440737	0.0663881
	2018.89	-0.0497293	0.223001
	2020.79	0.0233877	0.15293
	2022.69	0.316297	0.562403
	2024.59	0.467372	0.683646
	2026.49	0.553728	0.744129
	2028.39	0.675982	0.822181
	2030.29	0.812115	0.901174
	2032.19	0.758573	0.870961
	2034.09	0.892677	0.944816
	2035.99	0.829403	0.910716
	2037.89	0.701277	0.837423
	2039.79	0.708357	0.841639
	2041.69	0.566722	0.752809
	2043.59	0.49957	0.706803
	2045.49	0.509746	0.713965
	2047.39	0.640452	0.800282
	2049.3	0.701127	0.837333
	2051.2	0.751842	0.867088
	2053.1	0.641343	0.800839
	2055	0.889139	0.942941
	2056.9	1.16384	1.07881
	2058.8	1.39605	1.18155
	2060.7	1.5008	1.22507
	2062.6	1.76153	1.32723
	2064.5	1.85372	1.36151
	2066.4	1.77666	1.33291
	2068.3	1.68675	1.29875
	2070.2	1.64242	1.28157
	2072.1	1.60246	1.26588
	2074	1.62059	1.27302
	2075.9	1.67821	1.29546
	2077.8	1.67116	1.29273
	2079.7	1.50009	1.22478
	2081.6	1.43772	1.19905
	2083.5	1.52453	1.23472
	2085.4	1.46266	1.2094
	2087.3	1.3073	1.14337
	2089.2	1.15787	1.07604
	2091.1	1.24411	1.1154
	2093	1.48949	1.22045
	2094.9	1.51695	1.23165
	2096.8	1.31448	1.14651
	2098.7	0.970794	0.985289
	2100.6	0.791344	0.889575
	2102.5	0.673825	0.820868
	2104.4	0.675071	0.821627
	2106.31	0.400765	0.63306
	2108.21	0.204986	0.452754
	2110.11	0.246462	0.496449
	2112.01	0.304264	0.551601
	2113.91	0.194557	0.441087
	2115.81	0.0674856	0.25978
	2117.71	0.046318	0.215216
	2119.61	-0.101971	0.319328
	2121.51	0.164927	0.406113
	2123.41	0.446408	0.668137
	2125.31	0.576058	0.758985
	2127.21	0.493682	0.702625
	2129.11	0.509042	0.713472
	2131.01	0.305746	0.552943
	2132.91	0.139461	0.373444
	2134.81	0.235547	0.485332
	2136.71	0.287829	0.536497
	2138.61	0.271186	0.520756
	2140.51	0.0992143	0.314983
	2142.41	0.036194	0.190247
	2144.31	0.257587	0.50753
	2146.21	0.248368	0.498365
	2148.11	0.162032	0.402532
	2150.01	-0.0907711	0.301282
	2151.91	-0.189551	0.435375
	2153.81	-0.20102	0.448352
	2155.71	-0.267776	0.51747
	2157.61	-0.19005	0.435947
	2159.51	-0.0816167	0.285686
	2161.41	0.0921126	0.303501
	2163.31	0.061706	0.248407
	2165.22	0.202415	0.449906
	2167.12	0.334677	0.578513
	2169.02	0.615985	0.784847
	2170.92	0.64192	0.801199
	2172.82	0.490246	0.700176
	2174.72	0.115985	0.340566
	2176.62	-0.0570252	0.2388
	2178.52	0.0752456	0.274309
	2180.42	0.124247	0.352486
	2182.32	0.0250127	0.158154
	2184.22	-0.0806391	0.28397
	2186.12	-0.184563	0.429608
	2188.02	-0.254165	0.504148
	2189.92	-0.217102	0.465942
	2191.82	0.0997023	0.315757
	2193.72	0.432925	0.657971
	2195.62	0.280097	0.529242
	2197.52	0.0714612	0.267322
	2199.42	-0.268901	0.518557
	2201.32	-0.31411	0.560455
	2203.22	0.219189	0.468177
