Generated file C:/Users/didvk/Downloads/Dioptas_Win64_0.5.0/1_mask&dat&fxye_1position/1_ReMoB2_0bars_0p2GPa_S_P1_C1_D1w_010.fxye using DIOPTAS
# == pyFAI calibration ==
# Distance Sample to Detector: 0.21643023575112377 m
# PONI: 8.848e-02, 8.638e-02 m
# Rotations: 0.008179 -0.001145 -0.000000 rad
# 
# == Fit2d calibration ==
# Distance Sample-beamCenter: 216.438 mm
# Center: x=491.896, y=512.970 pix
# Tilt: 0.473 deg  TiltPlanRot: -172.032 deg
# 
# Detector Pilatus CdTe 1M	 PixelSize= 1.720e-04, 1.720e-04 m
#    Detector has a mask: True 
#    Detector has a dark current: False 
#    detector has a flat field: False 
# 
# Wavelength: 4.133e-11 m
# Mask applied: None
# Dark current applied: None
# Flat field applied: None
# Polarization factor: None
# Normalization factor: None
BANK	1	1006	1006 CONS	293.393	1.90033 0.4133 0.0 FXYE
	293.393	0.468853	0.684729
	295.294	0.18594	0.431207
	297.194	0.0709996	0.266458
	299.094	0.0213215	0.146019
	300.995	0.379552	0.616078
	302.895	0.965538	0.982618
	304.795	1.32429	1.15078
	306.696	0.931631	0.965211
	308.596	1.07829	1.03841
	310.496	1.23846	1.11286
	312.397	1.65233	1.28543
	314.297	1.72177	1.31216
	316.197	1.48489	1.21856
	318.098	1.07433	1.0365
	319.998	0.718328	0.847542
	321.898	0.842136	0.91768
	323.799	1.34254	1.15868
	325.699	2.12578	1.45801
	327.599	2.7191	1.64897
	329.5	3.0215	1.73825
	331.4	2.50774	1.58359
	333.3	3.20712	1.79084
	335.201	5.69354	2.38611
	337.101	10.469	3.23559
	339.001	14.4607	3.80272
	340.902	16.0134	4.00168
	342.802	12.8336	3.5824
	344.702	9.00976	3.00163
	346.603	5.22625	2.2861
	348.503	2.87024	1.69418
	350.403	1.58572	1.25925
	352.304	1.29445	1.13774
	354.204	1.73317	1.3165
	356.104	1.69704	1.30271
	358.005	1.27346	1.12848
	359.905	1.49742	1.22369
	361.805	1.3334	1.15473
	363.706	1.15469	1.07457
	365.606	1.26591	1.12513
	367.506	1.33168	1.15399
	369.407	0.936603	0.967783
	371.307	0.781437	0.883989
	373.207	0.997085	0.998541
	375.108	1.16685	1.08021
	377.008	0.975194	0.987519
	378.908	0.753089	0.867807
	380.808	0.474425	0.688785
	382.709	1.05671	1.02796
	384.609	0.936867	0.967919
	386.509	1.35694	1.16488
	388.41	1.47535	1.21464
	390.31	1.66127	1.2889
	392.21	1.44188	1.20078
	394.111	1.0548	1.02703
	396.011	1.03103	1.0154
	397.911	0.906976	0.952353
	399.812	1.1386	1.06705
	401.712	0.974478	0.987156
	403.612	0.678609	0.823777
	405.513	0.660551	0.812743
	407.413	0.543142	0.736982
	409.313	0.100676	0.317295
	411.214	0.055182	0.234909
	413.114	0.392954	0.62686
	415.014	0.790887	0.889318
	416.915	1.18325	1.08777
	418.815	1.29405	1.13757
	420.715	0.752508	0.867472
	422.616	0.329096	0.573668
	424.516	-0.115817	0.340319
	426.416	0.602761	0.776377
	428.317	1.20308	1.09685
	430.217	1.23136	1.10967
	432.117	0.729794	0.85428
	434.018	0.20085	0.448163
	435.918	-0.0166164	0.128905
	437.818	0.687802	0.829338
	439.719	0.62571	0.791019
	441.619	1.07298	1.03585
	443.519	0.849446	0.921654
	445.42	0.784481	0.885709
	447.32	0.57141	0.755917
	449.22	0.533662	0.730522
	451.121	0.135197	0.367692
	453.021	0.0208692	0.144462
	454.921	0.587734	0.766638
	456.822	0.723915	0.850832
	458.722	0.984255	0.992096
	460.622	0.577013	0.759614
	462.523	0.318679	0.564517
	464.423	-0.0329407	0.181496
	466.323	0.138843	0.372617
	468.224	0.387826	0.622757
	470.124	0.504886	0.710553
	472.024	0.468155	0.684218
	473.924	0.686127	0.828328
	475.825	0.164182	0.405193
	477.725	-0.000434603	0.0208471
	479.625	0.0109122	0.104461
	481.526	0.0117131	0.108227
	483.426	0.576217	0.759089
	485.326	0.572647	0.756734
	487.227	0.808895	0.899386
	489.127	0.836638	0.914679
	491.027	0.929034	0.963864
	492.928	1.06181	1.03044
	494.828	0.591564	0.769132
	496.728	0.294121	0.542329
	498.629	0.0629536	0.250906
	500.529	-0.0948342	0.307952
	502.429	-0.172373	0.415178
	504.33	0.131873	0.363143
	506.23	0.141721	0.376458
	508.13	0.00846867	0.0920254
	510.031	0.337193	0.580683
	511.931	0.634756	0.796716
	513.831	0.95852	0.979041
	515.732	0.924628	0.961576
	517.632	0.775399	0.880567
	519.532	0.33508	0.578861
	521.433	1.13574	1.06571
	523.333	1.75979	1.32657
	525.233	2.05258	1.43268
	527.134	1.6352	1.27875
	529.034	1.09269	1.04532
	530.934	0.614739	0.784053
	532.835	0.340304	0.583356
	534.735	0.537561	0.733185
	536.635	1.00437	1.00218
	538.536	0.811974	0.901096
	540.436	0.14241	0.377372
	542.336	-0.0508368	0.22547
	544.237	-0.14723	0.383705
	546.137	0.300917	0.548559
	548.037	-0.0441254	0.210061
	549.938	0.550917	0.742238
	551.838	0.638917	0.799323
	553.738	0.63367	0.796034
	555.639	0.733995	0.856735
	557.539	0.881946	0.93912
	559.439	0.852115	0.923101
	561.34	1.03021	1.01499
	563.24	1.21576	1.10261
	565.14	1.56001	1.24901
	567.041	1.83973	1.35637
	568.941	1.35416	1.16368
	570.841	0.860159	0.927447
	572.741	0.299664	0.547416
	574.642	0.396654	0.629805
	576.542	0.594961	0.771337
	578.442	0.562011	0.749674
	580.343	0.578025	0.760279
	582.243	0.626093	0.79126
	584.143	0.94654	0.972903
	586.044	1.04584	1.02266
	587.944	0.407351	0.63824
	589.844	0.174363	0.417568
	591.745	-0.258963	0.508884
	593.645	0.155469	0.394295
	595.545	0.334325	0.578208
	597.446	0.569912	0.754925
	599.346	0.50677	0.711878
	601.246	0.556706	0.746127
	603.147	0.255778	0.505745
	605.047	0.106535	0.326397
	606.947	0.0463493	0.215289
	608.848	0.168295	0.410237
	610.748	0.474865	0.689104
	612.648	0.729172	0.853916
	614.549	0.897895	0.947573
	616.449	0.991001	0.99549
	618.349	1.33068	1.15355
	620.25	2.53992	1.59371
	622.15	2.90963	1.70576
	624.05	5.53042	2.35168
	625.951	6.07351	2.46445
	627.851	6.82852	2.61314
	629.751	4.26392	2.06493
	631.652	2.70551	1.64484
	633.552	1.00052	1.00026
	635.452	0.947738	0.973518
	637.353	1.83031	1.35289
	639.253	3.73104	1.93159
	641.153	6.92789	2.63209
	643.054	9.12558	3.02086
	644.954	9.6438	3.10545
	646.854	7.3062	2.703
	648.755	4.249	2.06131
	650.655	2.36001	1.53623
	652.555	1.46384	1.20989
	654.456	1.22519	1.10688
	656.356	1.13535	1.06553
	658.256	0.417407	0.64607
	660.157	0.125529	0.3543
	662.057	0.401719	0.633813
	663.957	0.787357	0.887331
	665.857	0.812162	0.9012
	667.758	1.3707	1.17077
	669.658	2.95614	1.71934
	671.558	6.21379	2.49275
	673.459	10.4548	3.23339
	675.359	19.1826	4.37979
	677.259	26.6528	5.16264
	679.16	35.8021	5.98349
	681.06	41.854	6.46947
	682.96	44.0987	6.64068
	684.861	36.7245	6.06007
	686.761	27.4425	5.23856
	688.661	16.5124	4.06354
	690.562	10.5569	3.24914
	692.462	5.57165	2.36044
	694.362	2.20524	1.48501
	696.263	1.54387	1.24252
	698.163	1.32623	1.15162
	700.063	1.09017	1.04411
	701.964	0.502076	0.708574
	703.864	0.374545	0.612001
	705.764	0.592053	0.76945
	707.665	1.00837	1.00417
	709.565	0.959163	0.979369
	711.465	0.395086	0.628559
	713.366	0.034919	0.186866
	715.266	0.0127142	0.112757
	717.166	0.06267	0.25034
	719.067	0.000713313	0.0267079
	720.967	0.0440808	0.209954
	722.867	0.150492	0.387933
	724.768	0.25498	0.504956
	726.668	0.675551	0.821919
	728.568	0.63976	0.79985
	730.469	0.311664	0.558269
	732.369	0.339164	0.582378
	734.269	0.200021	0.447238
	736.17	0.585915	0.765451
	738.07	0.334741	0.578568
	739.97	0.440333	0.663576
	741.871	0.372668	0.610466
	743.771	0.225036	0.474379
	745.671	0.117741	0.343134
	747.572	-0.117753	0.343151
	749.472	0.279162	0.528358
	751.372	0.588555	0.767173
	753.273	0.547685	0.740057
	755.173	0.163362	0.404181
	757.073	0.173176	0.416145
	758.973	0.789102	0.888314
	760.874	0.884555	0.940508
	762.774	0.598014	0.773313
	764.674	0.0370921	0.192593
	766.575	0.0204793	0.143106
	768.475	0.144728	0.380432
	770.375	0.377334	0.614275
	772.276	0.273025	0.522518
	774.176	0.591438	0.76905
	776.076	0.459277	0.6777
	777.977	0.263265	0.513093
	779.877	0.0995964	0.315589
	781.777	0.426798	0.653298
	783.678	0.701958	0.837829
	785.578	0.574849	0.758188
	787.478	0.0677343	0.260258
	789.379	0.17039	0.412783
	791.279	-0.0837766	0.289442
	793.179	-0.060042	0.245035
	795.08	-0.125094	0.353686
	796.98	0.0857295	0.292796
	798.88	0.304255	0.551593
	800.781	0.626335	0.791413
	802.681	1.11447	1.05569
	804.581	1.10504	1.05121
	806.482	0.712325	0.843994
	808.382	0.445588	0.667524
	810.282	0.329899	0.574368
	812.183	0.219335	0.468333
	814.083	0.36354	0.602943
	815.983	0.420798	0.64869
	817.884	0.713013	0.844401
	819.784	0.537152	0.732907
	821.684	0.617016	0.785503
	823.585	0.780101	0.883233
	825.485	0.830637	0.911393
	827.385	0.770755	0.877927
	829.286	0.859947	0.927333
	831.186	1.07509	1.03687
	833.086	1.00506	1.00253
	834.987	0.633683	0.796042
	836.887	0.681998	0.825832
	838.787	0.6437	0.802309
	840.688	0.54744	0.739892
	842.588	0.292389	0.54073
	844.488	0.513698	0.716727
	846.389	0.813975	0.902205
	848.289	0.741756	0.861253
	850.189	0.625368	0.790802
	852.089	0.50054	0.707489
	853.99	0.50286	0.709126
	855.89	0.510381	0.714409
	857.79	0.858958	0.9268
	859.691	0.914588	0.956341
	861.591	0.738188	0.859178
	863.491	0.296501	0.544519
	865.392	0.0665934	0.258057
	867.292	-0.171655	0.414313
	869.192	-0.226708	0.476138
	871.093	0.118367	0.344045
	872.993	0.70439	0.839279
	874.893	0.812785	0.901546
	876.794	0.72745	0.852907
	878.694	0.757005	0.87006
	880.594	1.03951	1.01956
	882.495	1.17703	1.08491
	884.395	1.17229	1.08273
	886.295	1.17373	1.08339
	888.196	1.1947	1.09302
	890.096	0.965635	0.982667
	891.996	1.05702	1.02811
	893.897	1.81458	1.34706
	895.797	3.29072	1.81403
	897.697	5.06768	2.25115
	899.598	7.72616	2.7796
	901.498	11.6341	3.41089
	903.398	19.6952	4.43792
	905.299	36.4943	6.04105
	907.199	66.9356	8.18142
	909.099	107.378	10.3623
	911	146.802	12.1162
	912.9	201	14.1774
	914.8	248.789	15.7731
	916.701	275.799	16.6072
	918.601	261.378	16.1672
	920.501	219.023	14.7994
	922.402	176.617	13.2897
	924.302	133.557	11.5567
	926.202	107.722	10.3789
	928.103	93.4132	9.66505
	930.003	93.8505	9.68764
	931.903	90.3506	9.50529
	933.804	102.847	10.1413
	935.704	107.581	10.3721
	937.604	113.061	10.633
	939.505	100.055	10.0028
	941.405	87.3953	9.34854
	943.305	65.2299	8.07651
	945.206	44.8019	6.69342
	947.106	26.5613	5.15377
	949.006	15.3409	3.91674
	950.906	8.94971	2.99161
	952.807	5.69045	2.38547
	954.707	3.61733	1.90193
	956.607	2.59323	1.61035
	958.508	1.92749	1.38834
	960.408	1.39844	1.18256
	962.308	1.0171	1.00851
	964.209	0.876177	0.936043
	966.109	0.767597	0.876126
	968.009	0.784059	0.885471
	969.91	0.651591	0.807212
	971.81	0.199909	0.447112
	973.71	-0.00993002	0.0996495
	975.611	-0.146953	0.383345
	977.511	-0.180432	0.424773
	979.411	-0.0385103	0.19624
	981.312	0.404123	0.635706
	983.212	0.640397	0.800248
	985.112	0.582622	0.763296
	987.013	1.24969	1.1179
	988.913	1.66138	1.28894
	990.813	2.39807	1.54857
	992.714	3.05736	1.74853
	994.614	3.37591	1.83737
	996.514	3.07692	1.75412
	998.415	2.54245	1.59451
	1000.31	2.03007	1.42481
	1002.22	1.83065	1.35301
	1004.12	1.78553	1.33624
	1006.02	2.45933	1.56822
	1007.92	4.12745	2.03161
	1009.82	8.52289	2.9194
	1011.72	16.4073	4.05059
	1013.62	25.7612	5.07555
	1015.52	32.6578	5.7147
	1017.42	34.3293	5.85912
	1019.32	33.2489	5.76619
	1021.22	29.5771	5.43849
	1023.12	26.3482	5.13305
	1025.02	23.2607	4.82293
	1026.92	20.272	4.50244
	1028.82	14.8965	3.8596
	1030.72	9.0981	3.01631
	1032.62	5.88355	2.4256
	1034.52	4.15908	2.03938
	1036.42	3.18884	1.78573
	1038.32	2.61089	1.61582
	1040.22	2.29462	1.5148
	1042.12	2.50481	1.58266
	1044.02	2.61601	1.61741
	1045.92	3.06468	1.75062
	1047.82	3.38059	1.83864
	1049.72	4.01035	2.00259
	1051.62	4.83004	2.19774
	1053.52	5.84466	2.41757
	1055.42	7.10968	2.6664
	1057.32	9.5056	3.08312
	1059.23	12.2699	3.50284
	1061.13	16.4514	4.05603
	1063.03	23.3706	4.83431
	1064.93	41.3364	6.42934
	1066.83	61.2642	7.82715
	1068.73	89.8674	9.47984
	1070.63	104.103	10.2031
	1072.53	115.328	10.7391
	1074.43	110.433	10.5087
	1076.33	98.2301	9.91111
	1078.23	74.2595	8.6174
	1080.13	51.0797	7.147
	1082.03	34.0065	5.83151
	1083.93	21.4114	4.62725
	1085.83	14.762	3.84213
	1087.73	10.6468	3.26295
	1089.63	8.45471	2.9077
	1091.53	6.6985	2.58815
	1093.43	5.09103	2.25633
	1095.33	4.1373	2.03404
	1097.23	3.37508	1.83714
	1099.13	3.14761	1.77415
	1101.03	2.58963	1.60923
	1102.93	2.08012	1.44226
	1104.83	1.71236	1.30857
	1106.73	1.31095	1.14497
	1108.63	1.04399	1.02176
	1110.53	1.18875	1.0903
	1112.43	1.99849	1.41368
	1114.33	3.79614	1.94837
	1116.23	4.46771	2.1137
	1118.14	3.6582	1.91264
	1120.04	2.06384	1.43661
	1121.94	1.354	1.16362
	1123.84	1.1385	1.067
	1125.74	1.25579	1.12062
	1127.64	1.13548	1.06559
	1129.54	1.31672	1.14748
	1131.44	1.36358	1.16773
	1133.34	1.43083	1.19617
	1135.24	1.12801	1.06208
	1137.14	0.783992	0.885433
	1139.04	-0.0346348	0.186104
	1140.94	-0.0624481	0.249896
	1142.84	-0.066929	0.258706
	1144.74	0.00710276	0.0842779
	1146.64	-0.158236	0.397788
	1148.54	-0.0693647	0.263372
	1150.44	-0.0846034	0.290867
	1152.34	-0.233672	0.483396
	1154.24	-0.320583	0.5662
	1156.14	-0.238046	0.487899
	1158.04	-0.1662	0.407677
	1159.94	-0.33084	0.575187
	1161.84	-0.0126733	0.112576
	1163.74	0.303398	0.550816
	1165.64	1.07573	1.03717
	1167.54	1.33402	1.155
	1169.44	1.72051	1.31168
	1171.34	2.03154	1.42532
	1173.24	2.9991	1.73179
	1175.15	4.43117	2.10503
	1177.05	5.25147	2.29161
	1178.95	5.74844	2.39759
	1180.85	5.87218	2.42326
	1182.75	5.92025	2.43316
	1184.65	5.65702	2.37845
	1186.55	5.85564	2.41984
	1188.45	6.55346	2.55997
	1190.35	8.09293	2.84481
	1192.25	9.93527	3.15203
	1194.15	12.7012	3.56388
	1196.05	17.4471	4.17697
	1197.95	26.8551	5.18219
	1199.85	43.3716	6.58571
	1201.75	69.1469	8.31546
	1203.65	94.7143	9.73213
	1205.55	113.505	10.6539
	1207.45	121.855	11.0388
	1209.35	123.268	11.1026
	1211.25	117.949	10.8604
	1213.15	101.175	10.0586
	1215.05	79.9026	8.93883
	1216.95	55.4322	7.44528
	1218.85	37.4738	6.12159
	1220.75	26.4048	5.13856
	1222.65	19.8931	4.46016
	1224.55	15.3648	3.9198
	1226.45	12.301	3.50728
	1228.35	10.3158	3.21183
	1230.25	8.74049	2.95643
	1232.15	7.75052	2.78398
	1234.06	6.73692	2.59556
	1235.96	5.84342	2.41732
	1237.86	5.64486	2.37589
	1239.76	5.61557	2.36972
	1241.66	5.45836	2.33631
	1243.56	5.20003	2.28036
	1245.46	4.6781	2.16289
	1247.36	4.4045	2.09869
	1249.26	4.2082	2.05139
	1251.16	4.2729	2.0671
	1253.06	4.218	2.05378
	1254.96	4.12912	2.03202
	1256.86	4.49822	2.1209
	1258.76	5.04263	2.24558
	1260.66	5.51051	2.34745
	1262.56	5.94599	2.43844
	1264.46	6.68805	2.58613
	1266.36	8.36645	2.89248
	1268.26	9.8656	3.14095
	1270.16	12.4621	3.53017
	1272.06	14.9975	3.87266
	1273.96	20.1981	4.49423
	1275.86	28.1671	5.30727
	1277.76	43.9967	6.633
	1279.66	70.6109	8.40303
	1281.56	97.5272	9.87558
	1283.46	118.267	10.8751
	1285.36	132.296	11.502
	1287.26	136.784	11.6955
	1289.16	125.248	11.1914
	1291.06	103.473	10.1722
	1292.97	82.7307	9.09564
	1294.87	65.5632	8.09711
	1296.77	45.9918	6.78173
	1298.67	32.4347	5.69514
	1300.57	19.5026	4.41618
	1302.47	13.7741	3.71135
	1304.37	9.37921	3.06255
	1306.27	6.45049	2.53978
	1308.17	5.28517	2.29895
	1310.07	4.10317	2.02563
	1311.97	3.17625	1.7822
	1313.87	2.51517	1.58593
	1315.77	2.0138	1.41908
	1317.67	1.39651	1.18174
	1319.57	1.11591	1.05637
	1321.47	0.722974	0.850279
	1323.37	0.904488	0.951046
	1325.27	0.796523	0.892482
	1327.17	1.06236	1.03071
	1329.07	1.35166	1.16261
	1330.97	1.80123	1.3421
	1332.87	2.12403	1.4574
	1334.77	2.20779	1.48586
	1336.67	1.57691	1.25575
	1338.57	1.06816	1.03352
	1340.47	0.560952	0.748967
	1342.37	0.14025	0.3745
	1344.27	-0.111458	0.333853
	1346.17	-0.177434	0.421229
	1348.07	0.338525	0.581829
	1349.98	0.594292	0.770903
	1351.88	1.06341	1.03122
	1353.78	1.39036	1.17914
	1355.68	2.5054	1.58285
	1357.58	4.57398	2.13869
	1359.48	6.5144	2.55233
	1361.38	8.31542	2.88365
	1363.28	9.47965	3.0789
	1365.18	10.1203	3.18124
	1367.08	10.0976	3.17767
	1368.98	8.69551	2.94881
	1370.88	6.62694	2.57428
	1372.78	4.64077	2.15424
	1374.68	3.18102	1.78354
	1376.58	2.1017	1.44972
	1378.48	1.47486	1.21444
	1380.38	0.99721	0.998604
	1382.28	0.742366	0.861606
	1384.18	0.59591	0.771952
	1386.08	0.0524671	0.229057
	1387.98	0.00864082	0.092956
	1389.88	0.120634	0.347325
	1391.78	0.256614	0.506571
	1393.68	0.333928	0.577865
	1395.58	0.581819	0.762771
	1397.48	0.679929	0.824578
	1399.38	0.524564	0.724268
	1401.28	0.114741	0.338735
	1403.18	0.29098	0.539426
	1405.08	0.310293	0.557039
	1406.98	0.432156	0.657385
	1408.89	0.42817	0.654347
	1410.79	0.488874	0.699195
	1412.69	0.657644	0.810952
	1414.59	0.335683	0.579382
	1416.49	0.24975	0.49975
	1418.39	0.137706	0.371087
	1420.29	0.463219	0.680602
	1422.19	0.45924	0.677672
	1424.09	0.0189138	0.137528
	1425.99	-0.204244	0.451934
	1427.89	-0.0772792	0.277991
	1429.79	0.228602	0.478123
	1431.69	0.458369	0.67703
	1433.59	0.991079	0.995529
	1435.49	1.24507	1.11583
	1437.39	1.2827	1.13256
	1439.29	1.46176	1.20903
	1441.19	1.62165	1.27344
	1443.09	1.60203	1.26571
	1444.99	1.25936	1.12221
	1446.89	0.991622	0.995802
	1448.79	0.909307	0.953576
	1450.69	1.14935	1.07208
	1452.59	1.13226	1.06407
	1454.49	1.11144	1.05425
	1456.39	1.11104	1.05406
	1458.29	1.11819	1.05745
	1460.19	0.864953	0.930029
	1462.09	0.631351	0.794576
	1463.99	0.477653	0.691125
	1465.89	0.382155	0.618187
	1467.8	0.467875	0.684014
	1469.7	0.762141	0.873007
	1471.6	0.847631	0.920669
	1473.5	0.857298	0.925904
	1475.4	0.697618	0.835235
	1477.3	0.704058	0.839082
	1479.2	0.575699	0.758748
	1481.1	0.412598	0.642338
	1483	0.645727	0.803571
	1484.9	0.991294	0.995637
	1486.8	1.35888	1.16571
	1488.7	1.44723	1.20301
	1490.6	1.45073	1.20446
	1492.5	1.63819	1.27992
	1494.4	1.87795	1.37038
	1496.3	2.30818	1.51927
	1498.2	2.22825	1.49273
	1500.1	2.11217	1.45333
	1502	2.12704	1.45844
	1503.9	2.12035	1.45614
	1505.8	2.04011	1.42832
	1507.7	1.91867	1.38516
	1509.6	2.12614	1.45813
	1511.5	2.25466	1.50155
	1513.4	2.18257	1.47735
	1515.3	2.15025	1.46637
	1517.2	2.48788	1.5773
	1519.1	2.75306	1.65924
	1521	2.75943	1.66115
	1522.9	2.90567	1.7046
	1524.81	3.30438	1.81779
	1526.71	3.87954	1.96966
	1528.61	4.65497	2.15754
	1530.51	5.68711	2.38477
	1532.41	7.20808	2.68479
	1534.31	8.64603	2.94041
	1536.21	11.5423	3.39739
	1538.11	16.8014	4.09895
	1540.01	26.3048	5.12882
	1541.91	32.5242	5.703
	1543.81	38.7016	6.22106
	1545.71	43.4639	6.59272
	1547.61	49.8984	7.06388
	1549.51	51.323	7.16401
	1551.41	46.0831	6.78846
	1553.31	42.2331	6.4987
	1555.21	34.5311	5.87631
	1557.11	26.792	5.1761
	1559.01	19.1584	4.37704
	1560.91	12.1926	3.49179
	1562.81	10.2907	3.20791
	1564.71	9.11518	3.01914
	1566.61	9.48281	3.07942
	1568.51	11.0999	3.33164
	1570.41	14.5969	3.82058
	1572.31	19.9665	4.46839
	1574.21	28.4045	5.32959
	1576.11	37.673	6.13783
	1578.01	45.374	6.73602
	1579.91	50.0707	7.07606
	1581.81	50.8727	7.13251
	1583.72	46.9599	6.85273
	1585.62	40.0296	6.3269
	1587.52	30.643	5.53561
	1589.42	21.1014	4.59363
	1591.32	14.0897	3.75363
	1593.22	9.64679	3.10593
	1595.12	6.9951	2.64482
	1597.02	5.56321	2.35865
	1598.92	4.50331	2.1221
	1600.82	3.5431	1.88231
	1602.72	3.10213	1.76129
	1604.62	3.09428	1.75906
	1606.52	3.08356	1.75601
	1608.42	2.82032	1.67938
	1610.32	2.85446	1.68952
	1612.22	3.25458	1.80404
	1614.12	3.37469	1.83703
	1616.02	3.22868	1.79685
	1617.92	3.11534	1.76503
	1619.82	2.89351	1.70103
	1621.72	2.59496	1.61089
	1623.62	2.26763	1.50586
	1625.52	2.30273	1.51747
	1627.42	2.27937	1.50976
	1629.32	2.25846	1.50282
	1631.22	2.48086	1.57508
	1633.12	2.73032	1.65237
	1635.02	3.21627	1.7934
	1636.92	3.43693	1.8539
	1638.82	4.75368	2.18029
	1640.73	4.71965	2.17248
	1642.63	4.73871	2.17686
	1644.53	3.73169	1.93176
	1646.43	4.18674	2.04615
	1648.33	3.37439	1.83695
	1650.23	3.59608	1.89633
	1652.13	3.87206	1.96776
	1654.03	3.95419	1.98851
	1655.93	3.47851	1.86508
	1657.83	2.13292	1.46045
	1659.73	1.75269	1.32389
	1661.63	1.54905	1.24461
	1663.53	1.98678	1.40953
	1665.43	2.37684	1.5417
	1667.33	2.58432	1.60758
	1669.23	2.29883	1.51619
	1671.13	1.96671	1.40239
	1673.03	1.97484	1.40529
	1674.93	2.13934	1.46265
	1676.83	2.43928	1.56182
	1678.73	2.99571	1.73081
	1680.63	3.08111	1.75531
	1682.53	3.02733	1.73992
	1684.43	2.67714	1.6362
	1686.33	2.95432	1.71881
	1688.23	3.34013	1.8276
	1690.13	3.65831	1.91267
	1692.03	3.77965	1.94413
	1693.93	3.97085	1.9927
	1695.83	4.21773	2.05371
	1697.73	4.80178	2.1913
	1699.64	5.63367	2.37354
	1701.54	6.95986	2.63816
	1703.44	8.56189	2.92607
	1705.34	10.4774	3.23689
	1707.24	11.8482	3.44212
	1709.14	13.194	3.63236
	1711.04	16.2993	4.03724
	1712.94	22.8137	4.77637
	1714.84	33.7177	5.8067
	1716.74	45.8888	6.77413
	1718.64	56.9452	7.5462
	1720.54	64.6512	8.0406
	1722.44	64.2627	8.0164
	1724.34	61.1916	7.8225
	1726.24	54.5528	7.38599
	1728.14	51.4217	7.1709
	1730.04	45.4478	6.7415
	1731.94	42.6265	6.5289
	1733.84	37.9262	6.15843
	1735.74	34.4963	5.87336
	1737.64	32.6576	5.71468
	1739.54	30.1086	5.48713
	1741.44	27.9227	5.28419
	1743.34	26.5515	5.15281
	1745.24	24.3738	4.93698
	1747.14	20.319	4.50766
	1749.04	18.2507	4.27209
	1750.94	15.4891	3.93562
	1752.84	13.6394	3.69316
	1754.74	12.6566	3.55762
	1756.64	11.6328	3.41069
	1758.55	10.9745	3.31278
	1760.45	10.2308	3.19856
	1762.35	9.45439	3.0748
	1764.25	8.6503	2.94114
	1766.15	8.47794	2.91169
	1768.05	8.52524	2.9198
	1769.95	8.32499	2.88531
	1771.85	8.03426	2.83448
	1773.75	8.07041	2.84085
	1775.65	8.20758	2.86489
	1777.55	8.50898	2.91702
	1779.45	8.58103	2.92934
	1781.35	8.63965	2.93933
	1783.25	8.58304	2.92968
	1785.15	8.62887	2.93749
	1787.05	8.85788	2.97622
	1788.95	9.30827	3.05095
	1790.85	10.339	3.21543
	1792.75	10.7818	3.28356
	1794.65	10.9712	3.31228
	1796.55	10.0938	3.17707
	1798.45	9.2578	3.04266
	1800.35	8.26787	2.87539
	1802.25	7.96046	2.82143
	1804.15	7.76863	2.78723
	1806.05	7.76293	2.7862
	1807.95	7.96612	2.82243
	1809.85	7.88067	2.80725
	1811.75	8.09675	2.84548
	1813.65	8.04474	2.83632
	1815.56	8.95753	2.99291
	1817.46	10.1316	3.18302
	1819.36	12.9406	3.5973
	1821.26	18.2908	4.27677
	1823.16	25.7566	5.0751
	1825.06	32.8981	5.73569
	1826.96	37.5382	6.12684
	1828.86	39.8289	6.31101
	1830.76	37.6444	6.1355
	1832.66	34.39	5.8643
	1834.56	31.3866	5.60238
	1836.46	28.8942	5.37533
	1838.36	25.6925	5.06878
	1840.26	21.8393	4.67325
	1842.16	17.5087	4.18434
	1844.06	13.9443	3.73421
	1845.96	11.248	3.3538
	1847.86	9.04452	3.00741
	1849.76	6.8463	2.61654
	1851.66	4.61747	2.14883
	1853.56	3.15402	1.77596
	1855.46	1.75369	1.32427
	1857.36	0.954305	0.976885
	1859.26	0.543311	0.737096
	1861.16	0.152592	0.390631
	1863.06	-0.165817	0.407206
	1864.96	-0.421392	0.649147
	1866.86	-0.529684	0.727794
	1868.76	-0.239999	0.489897
	1870.66	0.251216	0.501214
	1872.56	1.39105	1.17943
	1874.47	3.95327	1.98828
	1876.37	9.03389	3.00564
	1878.27	15.5341	3.94133
	1880.17	20.5772	4.53621
	1882.07	25.7432	5.07377
	1883.97	26.7123	5.1684
	1885.87	24.2831	4.92778
	1887.77	20.3025	4.50583
	1889.67	18.9306	4.35094
	1891.57	18.4174	4.29155
	1893.47	15.2438	3.90433
	1895.37	10.6754	3.26733
	1897.27	7.06557	2.65811
	1899.17	4.67792	2.16285
	1901.07	4.07594	2.0189
	1902.97	3.14971	1.77474
	1904.87	10.1664	3.18847
	1906.77	12.7801	3.57492
	1908.67	14.0727	3.75136
	1910.57	17.4097	4.17249
	1912.47	19.1487	4.37592
	1914.37	20.4259	4.5195
	1916.27	16.5636	4.06984
	1918.17	12.3299	3.5114
	1920.07	10.6014	3.25598
	1921.97	8.10383	2.84672
	1923.87	7.04099	2.65349
	1925.77	4.75765	2.1812
	1927.67	2.48523	1.57646
	1929.57	1.61324	1.27013
	1931.48	0.359122	0.599268
	1933.38	0.185591	0.430803
	1935.28	-0.2772	0.526498
	1937.18	-0.195796	0.442489
	1939.08	-0.314682	0.560966
	1940.98	-0.290125	0.538632
	1942.88	-0.343505	0.586093
	1944.78	-0.479852	0.692713
	1946.68	-0.428357	0.65449
	1948.58	-0.276929	0.52624
	1950.48	-0.077642	0.278643
	1952.38	-0.110304	0.332121
	1954.28	0.0244786	0.156456
	1956.18	-0.186648	0.432027
	1958.08	0.125648	0.354469
	1959.98	0.201218	0.448574
	1961.88	0.47946	0.692431
	1963.78	0.459692	0.678006
	1965.68	0.404127	0.63571
	1967.58	0.350815	0.592297
	1969.48	0.313577	0.55998
	1971.38	0.414653	0.643936
	1973.28	0.377493	0.614405
	1975.18	0.400705	0.633013
	1977.08	0.650737	0.806683
	1978.98	1.13039	1.0632
	1980.88	1.5375	1.23996
	1982.78	1.86182	1.36448
	1984.68	2.74639	1.65722
	1986.58	3.75361	1.93742
	1988.48	5.02724	2.24215
	1990.39	6.16006	2.48195
	1992.29	6.00301	2.4501
	1994.19	5.68167	2.38363
	1996.09	4.6121	2.14758
	1997.99	3.18527	1.78473
	1999.89	1.79217	1.33872
	2001.79	1.23611	1.11181
	2003.69	0.689194	0.830177
	2005.59	0.355442	0.596189
	2007.49	0.218213	0.467132
	2009.39	0.188039	0.433635
	2011.29	-0.0114587	0.107045
	2013.19	-0.0107413	0.10364
	2015.09	-0.122874	0.350535
	2016.99	-0.0407156	0.201781
	2018.89	-0.03255	0.180416
	2020.79	0.180832	0.425244
	2022.69	0.296747	0.544745
	2024.59	0.456674	0.675777
	2026.49	0.417051	0.645795
	2028.39	0.620727	0.787863
	2030.29	0.738761	0.859512
	2032.19	0.904983	0.951306
	2034.09	0.99109	0.995535
	2035.99	1.11042	1.05376
	2037.89	1.3312	1.15378
	2039.79	1.76236	1.32754
	2041.69	1.96396	1.40141
	2043.59	1.69056	1.30022
	2045.49	1.27167	1.12768
	2047.39	1.01456	1.00725
	2049.3	0.816151	0.903411
	2051.2	0.679462	0.824295
	2053.1	0.596878	0.772579
	2055	0.441298	0.664303
	2056.9	0.435464	0.659897
	2058.8	0.58696	0.766133
	2060.7	0.538553	0.733861
	2062.6	0.259592	0.509502
	2064.5	0.0723975	0.269068
	2066.4	0.116005	0.340596
	2068.3	0.151109	0.388727
	2070.2	-0.0118477	0.108847
	2072.1	-0.193167	0.439507
	2074	-0.172413	0.415226
	2075.9	-0.0523761	0.228858
	2077.8	0.288065	0.536717
	2079.7	0.418894	0.64722
	2081.6	0.530195	0.728145
	2083.5	0.594787	0.771225
	2085.4	0.838051	0.915451
	2087.3	1.17398	1.0835
	2089.2	1.83254	1.35371
	2091.1	3.25613	1.80448
	2093	6.09588	2.46898
	2094.9	9.44221	3.07282
	2096.8	10.9104	3.3031
	2098.7	11.4635	3.38577
	2100.6	8.95015	2.99168
	2102.5	6.16419	2.48278
	2104.4	3.03078	1.74091
	2106.31	1.50026	1.22485
	2108.21	0.503784	0.709777
	2110.11	0.120478	0.347099
	2112.01	-0.0449039	0.211905
	2113.91	-0.111218	0.333494
	2115.81	0.153433	0.391705
	2117.71	0.276132	0.525483
	2119.61	0.196815	0.443638
	2121.51	-0.0551718	0.234887
	2123.41	-0.0813535	0.285225
	2125.31	0.13252	0.364033
	2127.21	0.218699	0.467652
	2129.11	0.397116	0.630172
	2131.01	0.209567	0.457784
	2132.91	0.0873421	0.295537
	2134.81	0.0100036	0.100018
	2136.71	0.0593812	0.243683
	2138.61	0.225183	0.474534
	2140.51	0.306139	0.553298
	2142.41	0.150078	0.387399
	2144.31	0.108743	0.329762
	2146.21	0.0422148	0.205462
	2148.11	0.0195478	0.139813
	2150.01	-0.021731	0.147414
	2151.91	0.0980436	0.313119
	2153.81	0.124448	0.352771
	2155.71	0.0975183	0.312279
	2157.61	0.0139382	0.11806
	2159.51	-0.0520591	0.228165
	2161.41	-0.0541847	0.232776
	2163.31	0.0470714	0.216959
	2165.22	0.158608	0.398256
	2167.12	0.188605	0.434287
	2169.02	0.0877458	0.296219
	2170.92	-0.0181275	0.134638
	2172.82	-0.0902277	0.300379
	2174.72	0.120887	0.347688
	2176.62	0.308174	0.555135
	2178.52	0.273701	0.523165
	2180.42	0.250247	0.500247
	2182.32	0.190496	0.436459
	2184.22	0.0050873	0.0713253
	2186.12	-0.10239	0.319984
	2188.02	-0.158265	0.397825
	2189.92	-0.0223214	0.149403
	2191.82	0.0409695	0.202409
	2193.72	0.0922905	0.303793
	2195.62	0.0411627	0.202886
	2197.52	-0.0532582	0.230777
	2199.42	-0.0644362	0.253843
	2201.32	0.0733617	0.270854
	2203.22	-0.0210754	0.145174
