Generated file C:/Users/didvk/Downloads/Dioptas_Win64_0.5.0/1_mask&dat&fxye_1position/2_ReMoB2_355bars_6p1GPa_S_P1_C1_D1w_019.fxye using DIOPTAS
# == pyFAI calibration ==
# Distance Sample to Detector: 0.21643023575112377 m
# PONI: 8.848e-02, 8.638e-02 m
# Rotations: 0.008179 -0.001145 -0.000000 rad
# 
# == Fit2d calibration ==
# Distance Sample-beamCenter: 216.438 mm
# Center: x=491.896, y=512.970 pix
# Tilt: 0.473 deg  TiltPlanRot: -172.032 deg
# 
# Detector Pilatus CdTe 1M	 PixelSize= 1.720e-04, 1.720e-04 m
#    Detector has a mask: True 
#    Detector has a dark current: False 
#    detector has a flat field: False 
# 
# Wavelength: 4.133e-11 m
# Mask applied: None
# Dark current applied: None
# Flat field applied: None
# Polarization factor: None
# Normalization factor: None
BANK	1	1006	1006 CONS	293.393	1.90033 0.4133 0.0 FXYE
	293.393	0.747018	0.864302
	295.294	0.716533	0.846483
	297.194	0.13558	0.368212
	299.094	-0.157979	0.397465
	300.995	-0.149987	0.387281
	302.895	0.924384	0.961449
	304.795	1.30259	1.14131
	306.696	1.16152	1.07774
	308.596	1.19358	1.09251
	310.496	1.21222	1.10101
	312.397	1.1882	1.09004
	314.297	0.798636	0.893665
	316.197	0.601465	0.775542
	318.098	0.815017	0.902783
	319.998	1.33909	1.15719
	321.898	2.01311	1.41884
	323.799	2.24893	1.49964
	325.699	2.09641	1.4479
	327.599	2.01174	1.41836
	329.5	2.35579	1.53486
	331.4	3.34476	1.82887
	333.3	5.46361	2.33744
	335.201	7.65802	2.76731
	337.101	11.6855	3.4184
	339.001	15.6918	3.96129
	340.902	18.6171	4.31475
	342.802	18.3335	4.28176
	344.702	15.4157	3.92628
	346.603	11.7998	3.43508
	348.503	7.86328	2.80415
	350.403	5.60006	2.36644
	352.304	3.78556	1.94565
	354.204	2.70785	1.64555
	356.104	1.73902	1.31872
	358.005	1.19259	1.09206
	359.905	1.19031	1.09101
	361.805	1.5335	1.23835
	363.706	1.5997	1.26479
	365.606	1.44414	1.20172
	367.506	1.29928	1.13986
	369.407	1.77459	1.33214
	371.307	1.96567	1.40202
	373.207	1.50926	1.22852
	375.108	0.883544	0.93997
	377.008	0.219096	0.468077
	378.908	-0.0710231	0.266502
	380.808	0.43281	0.657883
	382.709	0.750187	0.866133
	384.609	1.33976	1.15748
	386.509	2.04309	1.42937
	388.41	1.9231	1.38676
	390.31	1.44598	1.20249
	392.21	0.896834	0.947013
	394.111	0.632501	0.795299
	396.011	0.704933	0.839603
	397.911	1.16797	1.08073
	399.812	1.18639	1.08921
	401.712	0.52554	0.724941
	403.612	0.452866	0.672953
	405.513	0.32048	0.56611
	407.413	1.14238	1.06882
	409.313	1.33483	1.15535
	411.214	1.23319	1.11049
	413.114	1.09816	1.04793
	415.014	1.11824	1.05747
	416.915	1.02579	1.01281
	418.815	0.784076	0.885481
	420.715	0.768895	0.876866
	422.616	0.198428	0.445453
	424.516	0.380673	0.616987
	426.416	0.598175	0.773418
	428.317	0.836268	0.914477
	430.217	0.430089	0.655812
	432.117	0.373858	0.61144
	434.018	0.16925	0.4114
	435.918	-0.0668542	0.258562
	437.818	0.00481597	0.0693972
	439.719	0.408119	0.638842
	441.619	0.556915	0.746267
	443.519	0.69124	0.831408
	445.42	0.461687	0.679476
	447.32	0.1829	0.427668
	449.22	0.419696	0.647839
	451.121	0.677069	0.822842
	453.021	0.797943	0.893277
	454.921	0.601708	0.775698
	456.822	0.506032	0.711359
	458.722	0.587747	0.766646
	460.622	0.303385	0.550804
	462.523	-0.0976123	0.31243
	464.423	0.173037	0.415977
	466.323	0.465203	0.682058
	468.224	0.421063	0.648893
	470.124	0.0108485	0.104156
	472.024	0.122055	0.349364
	473.924	0.38677	0.621909
	475.825	0.588903	0.7674
	477.725	0.361204	0.601002
	479.625	0.744333	0.862747
	481.526	0.79344	0.890753
	483.426	0.4579	0.676683
	485.326	0.0466372	0.215956
	487.227	-0.20696	0.454929
	489.127	-0.0170807	0.130693
	491.027	0.157374	0.396703
	492.928	0.277079	0.526383
	494.828	0.484129	0.695793
	496.728	0.765776	0.875086
	498.629	1.3588	1.16568
	500.529	1.33046	1.15346
	502.429	1.23058	1.10932
	504.33	0.901985	0.949729
	506.23	0.158425	0.398026
	508.13	-0.0348618	0.186713
	510.031	0.347511	0.589501
	511.931	0.754683	0.868725
	513.831	0.703056	0.838484
	515.732	0.684677	0.827452
	517.632	0.850488	0.922219
	519.532	0.788593	0.888028
	521.433	0.507022	0.712055
	523.333	0.0611518	0.247289
	525.233	0.313676	0.560068
	527.134	0.358611	0.598842
	529.034	0.33905	0.58228
	530.934	0.0507675	0.225317
	532.835	-0.0657311	0.256381
	534.735	-0.217581	0.466455
	536.635	0.290355	0.538846
	538.536	0.28929	0.537857
	540.436	0.687271	0.829018
	542.336	0.204526	0.452246
	544.237	-0.00972975	0.0986395
	546.137	0.205195	0.452984
	548.037	0.329495	0.574017
	549.938	0.409042	0.639564
	551.838	0.238911	0.488786
	553.738	0.651639	0.807242
	555.639	0.986656	0.993306
	557.539	1.30382	1.14185
	559.439	1.92948	1.38906
	561.34	3.00094	1.73232
	563.24	3.91966	1.97981
	565.14	3.7663	1.9407
	567.041	3.59823	1.8969
	568.941	2.84078	1.68546
	570.841	2.50651	1.5832
	572.741	2.29023	1.51335
	574.642	2.06914	1.43845
	576.542	1.69669	1.30257
	578.442	1.35669	1.16477
	580.343	0.834738	0.91364
	582.243	0.43017	0.655873
	584.143	0.0327723	0.181031
	586.044	-0.01154	0.107424
	587.944	0.353636	0.594673
	589.844	0.275747	0.525116
	591.745	0.22847	0.477985
	593.645	0.251623	0.50162
	595.545	0.53024	0.728176
	597.446	1.06849	1.03368
	599.346	1.26473	1.1246
	601.246	0.912698	0.955352
	603.147	0.285906	0.534702
	605.047	-0.117548	0.342852
	606.947	-0.101533	0.318642
	608.848	0.0526851	0.229532
	610.748	0.225939	0.47533
	612.648	0.646509	0.804058
	614.549	0.895238	0.94617
	616.449	1.23188	1.1099
	618.349	2.11719	1.45506
	620.25	3.50154	1.87124
	622.15	5.38777	2.32116
	624.05	8.22647	2.86818
	625.951	12.3262	3.51087
	627.851	15.0885	3.8844
	629.751	15.5478	3.94307
	631.652	12.8917	3.5905
	633.552	8.99012	2.99835
	635.452	5.40368	2.32458
	637.353	3.92247	1.98052
	639.253	4.52536	2.12729
	641.153	6.3313	2.51621
	643.054	8.68378	2.94683
	644.954	10.784	3.2839
	646.854	12.8354	3.58265
	648.755	13.493	3.67328
	650.655	13.054	3.61304
	652.555	9.91195	3.14832
	654.456	6.91618	2.62986
	656.356	4.24194	2.0596
	658.256	2.41359	1.55357
	660.157	1.34826	1.16115
	662.057	1.22746	1.10791
	663.957	1.2881	1.13495
	665.857	1.47291	1.21364
	667.758	2.07148	1.43926
	669.658	3.00346	1.73305
	671.558	5.73832	2.39548
	673.459	10.2912	3.20798
	675.359	17.5705	4.19172
	677.259	28.0548	5.29668
	679.16	41.335	6.42923
	681.06	54.1569	7.35913
	682.96	62.5937	7.91162
	684.861	63.7689	7.98554
	686.761	59.5679	7.71802
	688.661	49.8388	7.05966
	690.562	38.222	6.1824
	692.462	29.9123	5.46921
	694.362	22.8934	4.7847
	696.263	17.0871	4.13366
	698.163	11.9499	3.45686
	700.063	8.07136	2.84101
	701.964	6.07264	2.46427
	703.864	3.79472	1.94801
	705.764	2.9885	1.72873
	707.665	1.6786	1.29561
	709.565	1.00909	1.00454
	711.465	0.722157	0.849798
	713.366	0.499207	0.706546
	715.266	0.319801	0.565509
	717.166	0.263296	0.513124
	719.067	0.196087	0.442817
	720.967	0.29079	0.539249
	722.867	0.496134	0.704368
	724.768	0.436761	0.660879
	726.668	0.257919	0.507857
	728.568	0.152762	0.390848
	730.469	0.0928509	0.304715
	732.369	0.126703	0.355954
	734.269	-0.177028	0.420747
	736.17	0.142045	0.376888
	738.07	0.1796	0.423793
	739.97	0.242996	0.492946
	741.871	0.0640353	0.253052
	743.771	0.379093	0.615706
	745.671	0.365331	0.604426
	747.572	0.675915	0.822141
	749.472	0.872312	0.933976
	751.372	1.0894	1.04374
	753.273	1.33391	1.15495
	755.173	1.50383	1.22631
	757.073	1.34466	1.1596
	758.973	1.6025	1.2659
	760.874	1.3942	1.18076
	762.774	1.18949	1.09064
	764.674	1.16755	1.08053
	766.575	0.851154	0.92258
	768.475	0.563394	0.750596
	770.375	0.177289	0.421057
	772.276	0.145513	0.381462
	774.176	0.491108	0.700791
	776.076	0.625402	0.790824
	777.977	0.596831	0.772549
	779.877	0.458006	0.676762
	781.777	0.232401	0.48208
	783.678	0.145463	0.381396
	785.578	0.243157	0.49311
	787.478	0.152602	0.390643
	789.379	-0.145362	0.381264
	791.279	0.11986	0.346209
	793.179	0.325136	0.570207
	795.08	0.538575	0.733877
	796.98	0.421316	0.649088
	798.88	0.323468	0.568742
	800.781	0.210964	0.459308
	802.681	0.52187	0.722405
	804.581	0.502852	0.709121
	806.482	0.288195	0.536838
	808.382	0.183746	0.428656
	810.282	0.0743456	0.272664
	812.183	0.280548	0.529668
	814.083	-0.143469	0.378773
	815.983	-0.0693212	0.263289
	817.884	0.00425244	0.0652107
	819.784	0.435908	0.660233
	821.684	0.509535	0.713817
	823.585	0.62919	0.793215
	825.485	0.773399	0.879431
	827.385	0.449636	0.670549
	829.286	0.0666002	0.25807
	831.186	0.0936486	0.306021
	833.086	0.301067	0.548695
	834.987	0.685864	0.828169
	836.887	0.749561	0.865772
	838.787	0.476386	0.690207
	840.688	0.245733	0.495715
	842.588	0.544966	0.738218
	844.488	0.744211	0.862677
	846.389	0.502165	0.708636
	848.289	0.333419	0.577425
	850.189	0.48216	0.694377
	852.089	0.657018	0.810567
	853.99	0.177722	0.421571
	855.89	0.286878	0.53561
	857.79	0.35418	0.59513
	859.691	0.190541	0.43651
	861.591	0.0162033	0.127292
	863.491	-0.161548	0.40193
	865.392	-0.062011	0.24902
	867.292	-0.155863	0.394795
	869.192	-0.129349	0.359651
	871.093	0.0270641	0.164512
	872.993	-0.0416026	0.203967
	874.893	0.00967531	0.0983632
	876.794	0.0732896	0.27072
	878.694	0.566049	0.752362
	880.594	0.629924	0.793677
	882.495	0.882027	0.939163
	884.395	0.672978	0.820352
	886.295	0.795822	0.892089
	888.196	1.01142	1.00569
	890.096	1.35436	1.16377
	891.996	2.02244	1.42212
	893.897	2.98703	1.7283
	895.797	4.83392	2.19862
	897.697	7.85872	2.80334
	899.598	12.4637	3.53039
	901.498	19.2713	4.38991
	903.398	31.0171	5.5693
	905.299	48.9935	6.99954
	907.199	80.5807	8.97667
	909.099	131.102	11.45
	911	202.038	14.214
	912.9	296.164	17.2094
	914.8	395.34	19.8832
	916.701	474.787	21.7896
	918.601	506.218	22.4993
	920.501	488.256	22.0965
	922.402	442.197	21.0285
	924.302	397.46	19.9364
	926.202	352.232	18.7678
	928.103	313.727	17.7123
	930.003	292.274	17.096
	931.903	280.859	16.7589
	933.804	276.351	16.6238
	935.704	269.472	16.4156
	937.604	249.682	15.8013
	939.505	221.325	14.877
	941.405	188.667	13.7356
	943.305	158.465	12.5883
	945.206	130.207	11.4108
	947.106	104.56	10.2255
	949.006	82.6167	9.08937
	950.906	64.4103	8.0256
	952.807	49.2912	7.02077
	954.707	37.014	6.08392
	956.607	27.6589	5.25917
	958.508	20.521	4.53001
	960.408	15.1278	3.88944
	962.308	10.8131	3.28833
	964.209	7.99445	2.82745
	966.109	6.03357	2.45633
	968.009	4.54806	2.13262
	969.91	3.26941	1.80815
	971.81	1.54608	1.24342
	973.71	0.665147	0.815565
	975.611	0.161726	0.402152
	977.511	0.228866	0.478399
	979.411	-0.0560798	0.236812
	981.312	-0.313613	0.560011
	983.212	-0.507827	0.71262
	985.112	-0.518522	0.720084
	987.013	0.0532427	0.230744
	988.913	0.481978	0.694246
	990.813	1.68275	1.29721
	992.714	2.66723	1.63317
	994.614	4.82234	2.19598
	996.514	6.01244	2.45203
	998.415	7.15148	2.67423
	1000.31	7.58672	2.7544
	1002.22	7.37895	2.71642
	1004.12	6.84075	2.61548
	1006.02	6.80851	2.60931
	1007.92	7.37931	2.71649
	1009.82	9.32813	3.0542
	1011.72	13.1919	3.63207
	1013.62	19.3941	4.40388
	1015.52	27.3887	5.23342
	1017.42	36.4203	6.03492
	1019.32	44.8317	6.69565
	1021.22	48.8576	6.98982
	1023.12	48.8578	6.98983
	1025.02	45.0633	6.71292
	1026.92	40.3088	6.34892
	1028.82	34.5889	5.88123
	1030.72	30.7794	5.54791
	1032.62	27.2677	5.22185
	1034.52	24.0188	4.90089
	1036.42	20.9182	4.57364
	1038.32	18.3234	4.28059
	1040.22	16.3957	4.04916
	1042.12	15.477	3.93408
	1044.02	14.0725	3.75133
	1045.92	13.7217	3.70428
	1047.82	13.6118	3.68942
	1049.72	14.194	3.76749
	1051.62	14.4454	3.80071
	1053.52	15.1844	3.89671
	1055.42	16.5819	4.07209
	1057.32	18.7141	4.32598
	1059.23	21.1241	4.59609
	1061.13	24.0908	4.90824
	1063.03	27.8869	5.28081
	1064.93	33.9878	5.82991
	1066.83	41.4078	6.43489
	1068.73	50.193	7.0847
	1070.63	59.1711	7.69228
	1072.53	65.3233	8.08228
	1074.43	67.7621	8.23177
	1076.33	66.6398	8.16332
	1078.23	63.3175	7.95723
	1080.13	58.0429	7.61859
	1082.03	51.7816	7.19594
	1083.93	44.8894	6.69996
	1085.83	38.2516	6.18479
	1087.73	32.048	5.66109
	1089.63	26.3099	5.12932
	1091.53	21.3063	4.61588
	1093.43	16.6893	4.08525
	1095.33	12.7398	3.56929
	1097.23	9.42971	3.07078
	1099.13	7.42429	2.72476
	1101.03	5.96384	2.4421
	1102.93	4.57613	2.13919
	1104.83	4.04628	2.01154
	1106.73	3.74623	1.93552
	1108.63	3.53511	1.88019
	1110.53	3.68122	1.91865
	1112.43	4.16885	2.04178
	1114.33	4.817	2.19477
	1116.23	4.23987	2.05909
	1118.14	2.88953	1.69986
	1120.04	1.49771	1.22381
	1121.94	0.935474	0.967199
	1123.84	0.802761	0.895969
	1125.74	0.483362	0.695242
	1127.64	0.345857	0.588096
	1129.54	-0.00544265	0.0737743
	1131.44	0.210558	0.458866
	1133.34	0.382589	0.618538
	1135.24	0.731491	0.855273
	1137.14	0.374867	0.612264
	1139.04	0.169949	0.412249
	1140.94	0.206154	0.454042
	1142.84	0.107771	0.328286
	1144.74	0.00186384	0.0431722
	1146.64	-0.183365	0.428211
	1148.54	-0.264955	0.514737
	1150.44	-0.471662	0.686777
	1152.34	-0.710777	0.843076
	1154.24	-0.651705	0.807283
	1156.14	-0.292917	0.541218
	1158.04	-0.269374	0.519013
	1159.94	-0.238506	0.48837
	1161.84	-0.391118	0.625395
	1163.74	-0.428463	0.654571
	1165.64	0.0736588	0.271402
	1167.54	0.833304	0.912855
	1169.44	1.10354	1.05049
	1171.34	1.30446	1.14213
	1173.24	1.66423	1.29005
	1175.15	2.80043	1.67345
	1177.05	3.79605	1.94834
	1178.95	4.42126	2.10268
	1180.85	4.92512	2.21926
	1182.75	5.66533	2.3802
	1184.65	6.50233	2.54997
	1186.55	7.28179	2.69848
	1188.45	8.26878	2.87555
	1190.35	9.43619	3.07184
	1192.25	11.5259	3.39498
	1194.15	13.8924	3.72725
	1196.05	17.995	4.24205
	1197.95	24.2264	4.92204
	1199.85	33.1652	5.75892
	1201.75	48.6303	6.97354
	1203.65	64.1862	8.01163
	1205.55	92.5635	9.62099
	1207.45	116.272	10.7829
	1209.35	137.347	11.7195
	1211.25	150.944	12.2859
	1213.15	155.734	12.4793
	1215.05	148.848	12.2003
	1216.95	140.573	11.8564
	1218.85	124.35	11.1512
	1220.75	111.246	10.5473
	1222.65	96.4072	9.81872
	1224.55	81.3273	9.01816
	1226.45	68.2679	8.26244
	1228.35	57.1431	7.55931
	1230.25	47.5992	6.89922
	1232.15	40.6279	6.374
	1234.06	35.4622	5.95501
	1235.96	31.4727	5.61005
	1237.86	28.0129	5.29272
	1239.76	26.0607	5.10497
	1241.66	24.5643	4.95624
	1243.56	23.5049	4.84818
	1245.46	22.7526	4.76997
	1247.36	22.0413	4.69482
	1249.26	21.5774	4.64515
	1251.16	21.4177	4.62792
	1253.06	21.7316	4.66171
	1254.96	21.9281	4.68274
	1256.86	22.1332	4.70459
	1258.76	22.4959	4.74299
	1260.66	22.9083	4.78626
	1262.56	23.1478	4.81122
	1264.46	23.427	4.84014
	1266.36	24.22	4.92138
	1268.26	25.2678	5.02671
	1270.16	26.5832	5.15589
	1272.06	28.5249	5.34087
	1273.96	30.672	5.53823
	1275.86	34.694	5.89017
	1277.76	39.3834	6.27562
	1279.66	46.9092	6.84903
	1281.56	53.8993	7.34162
	1283.46	60.1649	7.75661
	1285.36	64.4139	8.02583
	1287.26	66.907	8.17967
	1289.16	68.1636	8.25613
	1291.06	67.6531	8.22515
	1292.97	66.0153	8.12498
	1294.87	62.0546	7.87747
	1296.77	56.9652	7.54753
	1298.67	50.7821	7.12615
	1300.57	44.128	6.64289
	1302.47	37.3605	6.11232
	1304.37	30.8048	5.55021
	1306.27	24.4784	4.94757
	1308.17	19.1453	4.37554
	1310.07	14.3696	3.79073
	1311.97	10.5784	3.25244
	1313.87	7.62045	2.76052
	1315.77	5.44041	2.33247
	1317.67	3.95565	1.98888
	1319.57	2.8083	1.6758
	1321.47	1.75509	1.3248
	1323.37	0.893635	0.945323
	1325.27	0.0211552	0.145448
	1327.17	-0.192228	0.438438
	1329.07	-0.215334	0.464041
	1330.97	0.0676364	0.26007
	1332.87	0.510384	0.714412
	1334.77	0.78328	0.885031
	1336.67	0.761669	0.872737
	1338.57	0.517875	0.719635
	1340.47	0.0881167	0.296845
	1342.37	-0.195121	0.441725
	1344.27	-0.228283	0.477789
	1346.17	-0.0756629	0.275069
	1348.07	-0.00526368	0.0725512
	1349.98	0.0447426	0.211524
	1351.88	0.542627	0.736632
	1353.78	1.20136	1.09607
	1355.68	1.8109	1.3457
	1357.58	2.70799	1.6456
	1359.48	3.56841	1.88902
	1361.38	4.79995	2.19088
	1363.28	5.7838	2.40495
	1365.18	7.08725	2.66219
	1367.08	8.77905	2.96295
	1368.98	10.6453	3.26271
	1370.88	11.4873	3.38929
	1372.78	11.1217	3.33492
	1374.68	8.89875	2.98308
	1376.58	6.91108	2.62889
	1378.48	5.36123	2.31543
	1380.38	4.61604	2.1485
	1382.28	4.04737	2.01181
	1384.18	4.06426	2.016
	1386.08	3.55259	1.88483
	1387.98	3.4858	1.86703
	1389.88	3.24815	1.80226
	1391.78	2.76541	1.66295
	1393.68	2.02962	1.42465
	1395.58	1.39145	1.1796
	1397.48	0.970156	0.984965
	1399.38	0.702992	0.838446
	1401.28	0.518571	0.720119
	1403.18	0.100612	0.317194
	1405.08	-0.161988	0.402477
	1406.98	0.00429215	0.0655145
	1408.89	-0.00390899	0.0625219
	1410.79	-0.22477	0.474099
	1412.69	-0.470735	0.686101
	1414.59	-0.371128	0.609203
	1416.49	-0.324137	0.56933
	1418.39	-0.0710902	0.266627
	1420.29	0.19226	0.438475
	1422.19	0.317264	0.563262
	1424.09	0.390197	0.624657
	1425.99	0.492645	0.701887
	1427.89	0.314779	0.561051
	1429.79	0.36381	0.603167
	1431.69	0.185329	0.430498
	1433.59	0.401564	0.633691
	1435.49	0.284662	0.533537
	1437.39	0.140334	0.374612
	1439.29	0.176891	0.420584
	1441.19	0.574623	0.758039
	1443.09	0.676628	0.822574
	1444.99	0.581412	0.762504
	1446.89	0.595437	0.771646
	1448.79	0.538417	0.733769
	1450.69	0.359619	0.599682
	1452.59	0.544523	0.737918
	1454.49	0.789232	0.888387
	1456.39	0.785364	0.886208
	1458.29	0.261163	0.511041
	1460.19	0.0903782	0.30063
	1462.09	-0.0392586	0.198138
	1463.99	0.0942539	0.307008
	1465.89	0.159341	0.399176
	1467.8	0.2568	0.506755
	1469.7	0.398541	0.631301
	1471.6	0.773302	0.879376
	1473.5	0.853176	0.923675
	1475.4	0.688753	0.829911
	1477.3	0.585761	0.76535
	1479.2	0.43807	0.661869
	1481.1	0.364246	0.603528
	1483	0.0244254	0.156286
	1484.9	0.240131	0.490031
	1486.8	0.185659	0.430882
	1488.7	-0.0285118	0.168854
	1490.6	-0.161541	0.401922
	1492.5	0.409302	0.639767
	1494.4	0.6054	0.778074
	1496.3	0.581146	0.762329
	1498.2	0.425893	0.652604
	1500.1	0.612288	0.782488
	1502	0.927824	0.963236
	1503.9	1.05954	1.02934
	1505.8	1.28096	1.1318
	1507.7	1.52675	1.23562
	1509.6	1.66563	1.29059
	1511.5	1.47218	1.21334
	1513.4	1.4768	1.21524
	1515.3	1.52058	1.23312
	1517.2	1.92509	1.38748
	1519.1	2.12919	1.45917
	1521	2.2545	1.5015
	1522.9	2.40509	1.55084
	1524.81	2.74879	1.65795
	1526.71	2.93824	1.71413
	1528.61	3.1813	1.78362
	1530.51	3.34721	1.82954
	1532.41	4.11799	2.02928
	1534.31	5.40637	2.32516
	1536.21	7.03173	2.65174
	1538.11	8.69759	2.94917
	1540.01	11.166	3.34156
	1541.91	13.9308	3.7324
	1543.81	17.6848	4.20534
	1545.71	21.3954	4.62552
	1547.61	25.9681	5.09589
	1549.51	29.8766	5.46595
	1551.41	33.6677	5.80239
	1553.31	36.9749	6.0807
	1555.21	39.3561	6.27344
	1557.11	40.5737	6.36975
	1559.01	40.6895	6.37883
	1560.91	40.6046	6.37217
	1562.81	40.0872	6.33144
	1564.71	41.6964	6.45728
	1566.61	44.1414	6.6439
	1568.51	47.3544	6.88146
	1570.41	54.6275	7.39104
	1572.31	59.124	7.68921
	1574.21	64.4288	8.02676
	1576.11	68.8999	8.3006
	1578.01	70.8529	8.41742
	1579.91	71.2028	8.43818
	1581.81	68.4101	8.27104
	1583.72	65.0264	8.0639
	1585.62	56.8834	7.54211
	1587.52	50.7298	7.12249
	1589.42	43.2986	6.58017
	1591.32	35.539	5.96146
	1593.22	30.7796	5.54794
	1595.12	26.0486	5.10378
	1597.02	22.4107	4.73399
	1598.92	19.0932	4.36958
	1600.82	16.1413	4.01762
	1602.72	13.9096	3.72956
	1604.62	12.0917	3.47731
	1606.52	10.1943	3.19285
	1608.42	8.84167	2.9735
	1610.32	7.57634	2.75252
	1612.22	6.86125	2.6194
	1614.12	6.20062	2.4901
	1616.02	5.70623	2.38877
	1617.92	5.21268	2.28313
	1619.82	4.95128	2.22515
	1621.72	4.32686	2.08011
	1623.62	3.82856	1.95667
	1625.52	3.40948	1.84648
	1627.42	3.07359	1.75317
	1629.32	2.69944	1.643
	1631.22	2.47176	1.57218
	1633.12	2.19672	1.48213
	1635.02	2.00359	1.41548
	1636.92	1.7201	1.31153
	1638.82	1.55761	1.24804
	1640.73	1.38278	1.17592
	1642.63	1.14012	1.06777
	1644.53	1.04467	1.02209
	1646.43	1.03824	1.01894
	1648.33	1.23653	1.11199
	1650.23	0.920028	0.959181
	1652.13	0.368935	0.6074
	1654.03	0.0816345	0.285718
	1655.93	0.130972	0.361901
	1657.83	0.16319	0.403968
	1659.73	0.290839	0.539295
	1661.63	0.347432	0.589434
	1663.53	0.191323	0.437405
	1665.43	0.623597	0.789682
	1667.33	0.789834	0.888726
	1669.23	1.03187	1.01581
	1671.13	0.58445	0.764493
	1673.03	0.412764	0.642468
	1674.93	0.406879	0.637871
	1676.83	0.732866	0.856076
	1678.73	0.903133	0.950333
	1680.63	0.788976	0.888243
	1682.53	0.665151	0.815568
	1684.43	0.843785	0.918578
	1686.33	1.20257	1.09662
	1688.23	1.54401	1.24258
	1690.13	1.57484	1.25493
	1692.03	1.75503	1.32478
	1693.93	2.25561	1.50187
	1695.83	3.33654	1.82662
	1697.73	4.32298	2.07918
	1699.64	5.11869	2.26245
	1701.54	6.36062	2.52203
	1703.44	8.58089	2.92932
	1705.34	11.4249	3.38007
	1707.24	15.7196	3.96479
	1709.14	22.2877	4.72098
	1711.04	31.8228	5.64117
	1712.94	44.5994	6.67828
	1714.84	56.8861	7.54229
	1716.74	66.7747	8.17158
	1718.64	72.2521	8.50012
	1720.54	74.7793	8.6475
	1722.44	75.066	8.66406
	1724.34	74.5499	8.63423
	1726.24	73.1453	8.5525
	1728.14	70.7739	8.41273
	1730.04	68.3985	8.27034
	1731.94	65.1882	8.07392
	1733.84	62.2817	7.89188
	1735.74	59.1357	7.68998
	1737.64	56.0477	7.4865
	1739.54	53.4063	7.30796
	1741.44	50.8756	7.13271
	1743.34	49.1966	7.01403
	1745.24	48.3897	6.95627
	1747.14	49.3908	7.02786
	1749.04	49.9618	7.06837
	1750.94	49.9431	7.06704
	1752.84	47.5586	6.89628
	1754.74	43.6158	6.60423
	1756.64	37.4962	6.12341
	1758.55	32.0242	5.65899
	1760.45	27.1179	5.20748
	1762.35	23.201	4.81674
	1764.25	20.2812	4.50346
	1766.15	18.1365	4.2587
	1768.05	16.6558	4.08115
	1769.95	15.0183	3.87534
	1771.85	13.7274	3.70505
	1773.75	12.4607	3.52997
	1775.65	11.9102	3.45111
	1777.55	11.2414	3.35282
	1779.45	10.7794	3.2832
	1781.35	10.1415	3.18457
	1783.25	9.51277	3.08428
	1785.15	9.022	3.00366
	1787.05	8.8187	2.96963
	1788.95	8.36628	2.89245
	1790.85	8.10089	2.84621
	1792.75	7.71639	2.77784
	1794.65	7.51425	2.74121
	1796.55	7.22545	2.68802
	1798.45	7.14893	2.67375
	1800.35	7.11776	2.66791
	1802.25	7.524	2.74299
	1804.15	7.91525	2.81341
	1806.05	8.03801	2.83514
	1807.95	8.17505	2.8592
	1809.85	8.2099	2.86529
	1811.75	8.5007	2.9156
	1813.65	9.16634	3.0276
	1815.56	10.4139	3.22705
	1817.46	11.9869	3.4622
	1819.36	14.2543	3.77549
	1821.26	16.9629	4.1186
	1823.16	19.9843	4.47038
	1825.06	22.9023	4.78564
	1826.96	25.4342	5.04323
	1828.86	27.0532	5.20127
	1830.76	28.2558	5.31561
	1832.66	28.6054	5.3484
	1834.56	28.9582	5.38128
	1836.46	29.4795	5.4295
	1838.36	29.1141	5.39574
	1840.26	27.8097	5.27349
	1842.16	26.3294	5.13122
	1844.06	24.431	4.94278
	1845.96	22.1987	4.71155
	1847.86	19.618	4.42922
	1849.76	16.7778	4.09607
	1851.66	13.8527	3.72192
	1853.56	11.5913	3.40461
	1855.46	9.24931	3.04127
	1857.36	6.84605	2.6165
	1859.26	4.64754	2.15581
	1861.16	2.84472	1.68663
	1863.06	1.65889	1.28798
	1864.96	0.820877	0.906022
	1866.86	0.160572	0.400715
	1868.76	-0.0355123	0.188447
	1870.66	0.550888	0.742218
	1872.56	2.31591	1.52181
	1874.47	4.68762	2.16509
	1876.37	7.34894	2.71089
	1878.27	9.3303	3.05455
	1880.17	10.551	3.24823
	1882.07	11.3164	3.36399
	1883.97	13.1742	3.62963
	1885.87	14.6279	3.82464
	1887.77	15.2564	3.90594
	1889.67	13.8015	3.71503
	1891.57	12.5654	3.54478
	1893.47	13.1623	3.62799
	1895.37	12.803	3.57812
	1897.27	12.4646	3.53052
	1899.17	9.99964	3.16222
	1901.07	9.90725	3.14758
	1902.97	9.02611	3.00435
	1904.87	8.67773	2.9458
	1906.77	7.05061	2.6553
	1908.67	5.63467	2.37375
	1910.57	4.92695	2.21967
	1912.47	5.06483	2.25052
	1914.37	6.10612	2.47106
	1916.27	6.70888	2.59015
	1918.17	6.78954	2.60567
	1920.07	6.88715	2.62434
	1921.97	5.93416	2.43601
	1923.87	5.06777	2.25117
	1925.77	3.9061	1.97638
	1927.67	3.18177	1.78375
	1929.57	2.44601	1.56397
	1931.48	1.82606	1.35132
	1933.38	1.23463	1.11114
	1935.28	0.60194	0.775848
	1937.18	0.114543	0.338443
	1939.08	-0.113281	0.336572
	1940.98	-0.194247	0.440735
	1942.88	-0.278067	0.527321
	1944.78	-0.276123	0.525475
	1946.68	-0.290177	0.538681
	1948.58	-0.356861	0.597379
	1950.48	-0.296975	0.544954
	1952.38	-0.194695	0.441242
	1954.28	-0.176441	0.420049
	1956.18	-0.0865853	0.294254
	1958.08	0.0322665	0.179629
	1959.98	-0.0575155	0.239824
	1961.88	0.0841031	0.290005
	1963.78	0.198551	0.445591
	1965.68	-0.00710055	0.0842648
	1967.58	-0.140196	0.374428
	1969.48	-0.201103	0.448445
	1971.38	0.180796	0.425201
	1973.28	0.447948	0.669289
	1975.18	0.566701	0.752795
	1977.08	0.393954	0.627658
	1978.98	0.591862	0.769325
	1980.88	0.990588	0.995283
	1982.78	1.78457	1.33588
	1984.68	1.98133	1.4076
	1986.58	2.58082	1.60649
	1988.48	3.01098	1.73522
	1990.39	3.67337	1.9166
	1992.29	4.3515	2.08603
	1994.19	4.61831	2.14902
	1996.09	4.88527	2.21026
	1997.99	4.95375	2.2257
	1999.89	4.13276	2.03292
	2001.79	3.90654	1.9765
	2003.69	2.93415	1.71294
	2005.59	2.62553	1.62035
	2007.49	2.02117	1.42168
	2009.39	1.97433	1.40511
	2011.29	1.85795	1.36307
	2013.19	1.82362	1.35041
	2015.09	1.58025	1.25708
	2016.99	1.28098	1.1318
	2018.89	1.22392	1.10631
	2020.79	1.11767	1.0572
	2022.69	1.09941	1.04853
	2024.59	1.02423	1.01204
	2026.49	1.22404	1.10636
	2028.39	1.83511	1.35466
	2030.29	2.36733	1.53861
	2032.19	3.14577	1.77363
	2034.09	4.17988	2.04448
	2035.99	5.44405	2.33325
	2037.89	7.32027	2.7056
	2039.79	8.77851	2.96286
	2041.69	10.2116	3.19555
	2043.59	11.4596	3.38521
	2045.49	12.0114	3.46574
	2047.39	12.3658	3.5165
	2049.3	11.827	3.43905
	2051.2	10.863	3.2959
	2053.1	9.82973	3.13524
	2055	8.37583	2.8941
	2056.9	7.15274	2.67446
	2058.8	5.73603	2.395
	2060.7	4.79894	2.19065
	2062.6	3.54228	1.88209
	2064.5	2.64062	1.625
	2066.4	2.30822	1.51928
	2068.3	2.03573	1.42679
	2070.2	1.67375	1.29373
	2072.1	1.03488	1.01729
	2074	0.787654	0.887499
	2075.9	0.440234	0.663501
	2077.8	0.222679	0.471888
	2079.7	0.144282	0.379844
	2081.6	-0.0355417	0.188525
	2083.5	-0.0776987	0.278745
	2085.4	0.185913	0.431177
	2087.3	0.398599	0.631347
	2089.2	0.581091	0.762293
	2091.1	0.664861	0.81539
	2093	0.60361	0.776923
	2094.9	0.844353	0.918887
	2096.8	1.40388	1.18486
	2098.7	2.30141	1.51704
	2100.6	2.75133	1.65871
	2102.5	2.8785	1.69661
	2104.4	2.87749	1.69632
	2106.31	3.11519	1.76499
	2108.21	2.76434	1.66263
	2110.11	2.03011	1.42482
	2112.01	1.2408	1.11391
	2113.91	0.717582	0.847102
	2115.81	0.407494	0.638352
	2117.71	0.296412	0.544437
	2119.61	0.408549	0.639179
	2121.51	0.340443	0.583475
	2123.41	0.25568	0.505648
	2125.31	0.29992	0.54765
	2127.21	0.428143	0.654326
	2129.11	0.366332	0.605254
	2131.01	0.150096	0.387422
	2132.91	-0.206043	0.453919
	2134.81	-0.141973	0.376793
	2136.71	-0.0231854	0.152268
	2138.61	0.16603	0.407468
	2140.51	0.291533	0.539938
	2142.41	0.303612	0.55101
	2144.31	0.294714	0.542876
	2146.21	0.190457	0.436414
	2148.11	0.124044	0.352198
	2150.01	-0.0286834	0.169362
	2151.91	-0.00416001	0.0644981
	2153.81	0.303682	0.551074
	2155.71	0.485959	0.697108
	2157.61	0.368695	0.607202
	2159.51	0.209341	0.457538
	2161.41	0.0291918	0.170856
	2163.31	0.214809	0.463475
	2165.22	0.288597	0.537212
	2167.12	0.11046	0.332355
	2169.02	0.0240411	0.155052
	2170.92	0.1313	0.362353
	2172.82	0.197118	0.44398
	2174.72	0.209506	0.457718
	2176.62	0.183724	0.42863
	2178.52	0.0119756	0.109433
	2180.42	-0.0906862	0.301141
	2182.32	-0.210649	0.458965
	2184.22	-0.121081	0.347967
	2186.12	0.000910935	0.0301817
	2188.02	0.31469	0.560973
	2189.92	0.346785	0.588885
	2191.82	0.0574684	0.239726
	2193.72	-0.249565	0.499564
	2195.62	-0.26895	0.518604
	2197.52	-0.116173	0.340841
	2199.42	0.123873	0.351956
	2201.32	0.258658	0.508585
	2203.22	-0.141057	0.375575
