Generated file C:/Users/didvk/Downloads/Dioptas_Win64_0.5.0/1_mask&dat&fxye_1position/3_ReMoB2_400psi_13p8GPa_S_P1_C1_D1w_025.fxye using DIOPTAS
# == pyFAI calibration ==
# Distance Sample to Detector: 0.21643023575112377 m
# PONI: 8.848e-02, 8.638e-02 m
# Rotations: 0.008179 -0.001145 -0.000000 rad
# 
# == Fit2d calibration ==
# Distance Sample-beamCenter: 216.438 mm
# Center: x=491.896, y=512.970 pix
# Tilt: 0.473 deg  TiltPlanRot: -172.032 deg
# 
# Detector Pilatus CdTe 1M	 PixelSize= 1.720e-04, 1.720e-04 m
#    Detector has a mask: True 
#    Detector has a dark current: False 
#    detector has a flat field: False 
# 
# Wavelength: 4.133e-11 m
# Mask applied: None
# Dark current applied: None
# Flat field applied: None
# Polarization factor: None
# Normalization factor: None
BANK	1	1006	1006 CONS	293.393	1.90033 0.4133 0.0 FXYE
	293.393	0.631559	0.794707
	295.294	0.267215	0.516928
	297.194	0.772999	0.879203
	299.094	0.661273	0.813187
	300.995	0.803658	0.89647
	302.895	0.691007	0.831268
	304.795	0.423847	0.651035
	306.696	-0.295086	0.543219
	308.596	0.0418209	0.204502
	310.496	0.559532	0.748019
	312.397	1.17156	1.08239
	314.297	1.39109	1.17945
	316.197	1.7614	1.32718
	318.098	2.04613	1.43043
	319.998	1.99225	1.41147
	321.898	1.58034	1.25712
	323.799	1.65214	1.28536
	325.699	2.1543	1.46775
	327.599	2.19262	1.48075
	329.5	2.35312	1.53399
	331.4	2.69815	1.64261
	333.3	3.68244	1.91897
	335.201	5.6654	2.38021
	337.101	9.14144	3.02348
	339.001	14.8325	3.8513
	340.902	22.5445	4.7481
	342.802	31.677	5.62823
	344.702	38.4388	6.1999
	346.603	37.0289	6.08514
	348.503	30.183	5.4939
	350.403	20.8928	4.57086
	352.304	12.7108	3.56522
	354.204	7.37339	2.7154
	356.104	4.06604	2.01644
	358.005	2.96252	1.7212
	359.905	1.97339	1.40477
	361.805	1.48967	1.22052
	363.706	0.900582	0.94899
	365.606	0.760733	0.8722
	367.506	0.916152	0.957158
	369.407	1.32188	1.14973
	371.307	1.59536	1.26308
	373.207	1.7406	1.31932
	375.108	1.42581	1.19407
	377.008	1.29675	1.13875
	378.908	1.25621	1.12081
	380.808	0.864809	0.929951
	382.709	0.494409	0.703142
	384.609	0.674316	0.821167
	386.509	0.808064	0.898924
	388.41	1.1085	1.05285
	390.31	1.52818	1.2362
	392.21	1.38913	1.17861
	394.111	1.15354	1.07403
	396.011	0.689979	0.83065
	397.911	0.554389	0.744573
	399.812	0.820286	0.905696
	401.712	1.02137	1.01063
	403.612	1.20315	1.09688
	405.513	0.895285	0.946195
	407.413	-0.0957007	0.309355
	409.313	-0.0868941	0.294778
	411.214	0.269392	0.51903
	413.114	0.835501	0.914058
	415.014	0.618304	0.786323
	416.915	0.52334	0.723423
	418.815	0.357549	0.597954
	420.715	0.332156	0.57633
	422.616	0.40481	0.636247
	424.516	0.479132	0.692194
	426.416	0.0317627	0.178221
	428.317	0.141095	0.375626
	430.217	0.331364	0.575642
	432.117	0.519564	0.720808
	434.018	0.329285	0.573833
	435.918	-0.0359218	0.18953
	437.818	0.0207785	0.144147
	439.719	0.792697	0.890335
	441.619	1.0765	1.03754
	443.519	1.15636	1.07534
	445.42	0.585486	0.765171
	447.32	0.725869	0.851979
	449.22	0.727879	0.853158
	451.121	0.921665	0.960034
	453.021	0.578113	0.760337
	454.921	0.646218	0.803877
	456.822	0.348432	0.590282
	458.722	0.285635	0.534448
	460.622	0.558752	0.747497
	462.523	1.00859	1.00428
	464.423	0.991547	0.995765
	466.323	0.848772	0.921288
	468.224	0.351919	0.593227
	470.124	0.112695	0.335701
	472.024	0.392746	0.626694
	473.924	0.864864	0.929981
	475.825	0.527676	0.726413
	477.725	-0.251576	0.501574
	479.625	-0.142848	0.377952
	481.526	-0.0266904	0.163372
	483.426	0.38573	0.621072
	485.326	0.321006	0.566574
	487.227	0.402563	0.634478
	489.127	0.472021	0.687038
	491.027	0.305139	0.552394
	492.928	0.411099	0.64117
	494.828	0.179621	0.423817
	496.728	0.212787	0.461289
	498.629	0.185255	0.430412
	500.529	0.220254	0.469312
	502.429	0.0682325	0.261214
	504.33	0.223903	0.473184
	506.23	0.187786	0.433343
	508.13	0.192024	0.438206
	510.031	0.178734	0.42277
	511.931	0.0330743	0.181863
	513.831	0.170693	0.41315
	515.732	0.332443	0.576579
	517.632	-0.0283646	0.168418
	519.532	0.0114886	0.107185
	521.433	0.254068	0.504051
	523.333	0.519493	0.720758
	525.233	0.917714	0.957974
	527.134	1.38977	1.17889
	529.034	1.39061	1.17924
	530.934	0.824428	0.90798
	532.835	0.154308	0.392821
	534.735	0.111415	0.333789
	536.635	0.258376	0.508307
	538.536	0.00580773	0.0762085
	540.436	-0.261775	0.511639
	542.336	-0.263056	0.51289
	544.237	0.0333296	0.182564
	546.137	0.0975981	0.312407
	548.037	0.0194438	0.139441
	549.938	0.00303404	0.0550821
	551.838	0.0051903	0.0720438
	553.738	0.151966	0.389828
	555.639	0.358151	0.598457
	557.539	1.04236	1.02096
	559.439	1.86032	1.36394
	561.34	2.7534	1.65934
	563.24	3.84031	1.95967
	565.14	6.07876	2.46551
	567.041	8.75983	2.9597
	568.941	10.8199	3.28936
	570.841	11.8299	3.43946
	572.741	11.6281	3.41001
	574.642	10.7425	3.27757
	576.542	9.35024	3.05782
	578.442	7.73175	2.7806
	580.343	6.03417	2.45645
	582.243	4.54574	2.13208
	584.143	3.19292	1.78687
	586.044	2.45402	1.56653
	587.944	1.94245	1.39372
	589.844	2.05434	1.4333
	591.745	1.54445	1.24276
	593.645	0.945309	0.97227
	595.545	0.880541	0.938371
	597.446	1.37386	1.17212
	599.346	1.70631	1.30626
	601.246	1.87126	1.36794
	603.147	1.61895	1.27238
	605.047	1.29746	1.13906
	606.947	0.949828	0.974591
	608.848	0.679376	0.824243
	610.748	0.645335	0.803327
	612.648	0.843152	0.918233
	614.549	1.23661	1.11203
	616.449	2.19792	1.48254
	618.349	3.14128	1.77237
	620.25	4.19168	2.04736
	622.15	5.38605	2.32079
	624.05	7.55066	2.74785
	625.951	11.9156	3.45189
	627.851	17.7459	4.21259
	629.751	27.7864	5.27128
	631.652	35.377	5.94785
	633.552	41.4378	6.43722
	635.452	39.9644	6.32174
	637.353	33.3731	5.77694
	639.253	23.2773	4.82466
	641.153	16.0018	4.00022
	643.054	10.332	3.21435
	644.954	8.91659	2.98607
	646.854	8.46208	2.90897
	648.755	9.43625	3.07185
	650.655	10.1505	3.18598
	652.555	10.2614	3.20335
	654.456	9.56861	3.09332
	656.356	8.32894	2.88599
	658.256	6.14976	2.47987
	660.157	4.51809	2.12558
	662.057	3.67519	1.91708
	663.957	3.24718	1.80199
	665.857	2.86784	1.69347
	667.758	2.96804	1.7228
	669.658	4.20643	2.05096
	671.558	6.24308	2.49862
	673.459	9.49397	3.08123
	675.359	14.5316	3.81204
	677.259	23.3306	4.83018
	679.16	35.015	5.91735
	681.06	49.2137	7.01525
	682.96	62.1611	7.88423
	684.861	72.9152	8.53904
	686.761	81.433	9.02402
	688.661	84.0529	9.16804
	690.562	87.2877	9.34279
	692.462	82.782	9.09846
	694.362	74.5161	8.63227
	696.263	60.2805	7.76405
	698.163	47.3992	6.88471
	700.063	34.4721	5.87129
	701.964	25.4855	5.04832
	703.864	17.1703	4.14371
	705.764	12.0131	3.46599
	707.665	8.31953	2.88436
	709.565	5.78747	2.40572
	711.465	4.1116	2.02771
	713.366	2.91789	1.70818
	715.266	2.31337	1.52098
	717.166	1.73322	1.31652
	719.067	0.958279	0.978917
	720.967	0.515046	0.717667
	722.867	0.0170901	0.130729
	724.768	-0.207503	0.455525
	726.668	-0.118678	0.344496
	728.568	-0.0746408	0.273205
	730.469	0.272403	0.521923
	732.369	0.568782	0.754177
	734.269	0.568498	0.753988
	736.17	0.159686	0.399607
	738.07	0.161732	0.402159
	739.97	0.715198	0.845694
	741.871	1.01903	1.00947
	743.771	1.34426	1.15942
	745.671	0.996284	0.99814
	747.572	0.58722	0.766303
	749.472	-0.00863786	0.0929401
	751.372	0.224031	0.473319
	753.273	0.899213	0.948268
	755.173	1.10897	1.05308
	757.073	0.74079	0.860692
	758.973	0.696399	0.834506
	760.874	1.12781	1.06198
	762.774	1.26773	1.12593
	764.674	1.2222	1.10553
	766.575	1.20466	1.09757
	768.475	1.2661	1.12521
	770.375	1.56661	1.25164
	772.276	1.27148	1.1276
	774.176	1.17881	1.08573
	776.076	0.932306	0.96556
	777.977	0.671907	0.819699
	779.877	0.432052	0.657306
	781.777	0.18626	0.431579
	783.678	0.0687029	0.262112
	785.578	0.254557	0.504536
	787.478	0.488082	0.698629
	789.379	0.325466	0.570496
	791.279	-0.0438158	0.209322
	793.179	-0.100261	0.316639
	795.08	0.403789	0.635444
	796.98	0.772667	0.879015
	798.88	0.872057	0.93384
	800.781	0.792855	0.890424
	802.681	0.896196	0.946676
	804.581	0.947096	0.973189
	806.482	1.16294	1.0784
	808.382	0.728968	0.853796
	810.282	0.801775	0.895419
	812.183	0.465333	0.682154
	814.083	0.680608	0.82499
	815.983	0.627391	0.79208
	817.884	0.400802	0.633089
	819.784	-0.0739269	0.271895
	821.684	-0.286754	0.535495
	823.585	-0.146901	0.383276
	825.485	0.243486	0.493443
	827.385	0.403984	0.635598
	829.286	0.529837	0.727899
	831.186	0.453275	0.673257
	833.086	0.186194	0.431502
	834.987	0.198232	0.445232
	836.887	0.36561	0.604657
	838.787	0.485625	0.696868
	840.688	0.496398	0.704555
	842.588	0.409591	0.639993
	844.488	0.554876	0.7449
	846.389	0.608403	0.780002
	848.289	0.664048	0.814891
	850.189	0.4481	0.669403
	852.089	0.835837	0.914241
	853.99	0.885641	0.941085
	855.89	0.9732	0.986509
	857.79	0.894843	0.945961
	859.691	0.694912	0.833614
	861.591	0.363261	0.602712
	863.491	-0.0777563	0.278848
	865.392	-0.0245058	0.156543
	867.292	-0.0702848	0.265113
	869.192	0.162004	0.402497
	871.093	0.0931392	0.305187
	872.993	-0.0193289	0.139028
	874.893	-0.175058	0.4184
	876.794	-0.153591	0.391907
	878.694	-0.0592763	0.243467
	880.594	0.309435	0.556269
	882.495	0.445005	0.667087
	884.395	0.260492	0.510384
	886.295	0.0608616	0.246701
	888.196	0.539478	0.734492
	890.096	1.16956	1.08146
	891.996	1.94613	1.39504
	893.897	3.02036	1.73792
	895.797	4.77368	2.18488
	897.697	7.31366	2.70438
	899.598	10.9779	3.31329
	901.498	16.8068	4.09961
	903.398	25.8951	5.08872
	905.299	39.1534	6.25727
	907.199	59.2311	7.69618
	909.099	88.5396	9.40955
	911	130.748	11.4345
	912.9	184.15	13.5702
	914.8	252.926	15.9037
	916.701	335.323	18.3118
	918.601	422.097	20.545
	920.501	510.3	22.5898
	922.402	618.776	24.8752
	924.302	690.073	26.2692
	926.202	708.189	26.6118
	928.103	649.121	25.4779
	930.003	565.393	23.778
	931.903	475.776	21.8123
	933.804	401.488	20.0372
	935.704	353.942	18.8134
	937.604	316.142	17.7804
	939.505	303.291	17.4152
	941.405	296.639	17.2232
	943.305	288.353	16.9809
	945.206	282.425	16.8055
	947.106	264.793	16.2725
	949.006	238.214	15.4342
	950.906	199.499	14.1244
	952.807	159.275	12.6204
	954.707	121.412	11.0187
	956.607	91.0111	9.53997
	958.508	66.6211	8.16217
	960.408	48.8028	6.9859
	962.308	35.1794	5.93122
	964.209	25.604	5.06004
	966.109	18.6749	4.32145
	968.009	13.3717	3.65673
	969.91	9.5502	3.09034
	971.81	6.73703	2.59558
	973.71	4.52789	2.12788
	975.611	3.02481	1.7392
	977.511	1.75286	1.32396
	979.411	1.15304	1.0738
	981.312	0.154448	0.392998
	983.212	-0.449881	0.670731
	985.112	-0.5335	0.730411
	987.013	-0.254143	0.504126
	988.913	0.0962511	0.310244
	990.813	0.813322	0.901843
	992.714	1.49675	1.22342
	994.614	2.21038	1.48673
	996.514	2.65768	1.63024
	998.415	3.26907	1.80806
	1000.31	3.86801	1.96673
	1002.22	4.18426	2.04555
	1004.12	4.37333	2.09125
	1006.02	3.93949	1.98482
	1007.92	3.4632	1.86097
	1009.82	3.55968	1.88671
	1011.72	4.89304	2.21202
	1013.62	7.04566	2.65437
	1015.52	9.40583	3.06689
	1017.42	13.5641	3.68294
	1019.32	17.124	4.13811
	1021.22	23.2535	4.82219
	1023.12	27.5504	5.24885
	1025.02	32.5798	5.70787
	1026.92	35.0203	5.9178
	1028.82	36.4389	6.03647
	1030.72	36.213	6.01772
	1032.62	35.924	5.99367
	1034.52	33.5773	5.79459
	1036.42	31.1695	5.58296
	1038.32	29.0991	5.39435
	1040.22	27.2397	5.21917
	1042.12	25.9382	5.09296
	1044.02	23.8371	4.88233
	1045.92	22.0772	4.69864
	1047.82	20.3746	4.51383
	1049.72	19.1413	4.37508
	1051.62	18.1061	4.25513
	1053.52	17.3547	4.1659
	1055.42	17.3735	4.16815
	1057.32	18.5537	4.3074
	1059.23	19.9793	4.46982
	1061.13	21.7963	4.66865
	1063.03	23.8231	4.88089
	1064.93	26.2751	5.12592
	1066.83	29.2218	5.40572
	1068.73	34.0672	5.83671
	1070.63	39.1666	6.25832
	1072.53	43.8198	6.61965
	1074.43	46.7834	6.83984
	1076.33	48.6304	6.97355
	1078.23	49.4536	7.03232
	1080.13	49.376	7.0268
	1082.03	48.483	6.96297
	1083.93	46.722	6.83535
	1085.83	43.8486	6.62183
	1087.73	40.4942	6.3635
	1089.63	36.4563	6.0379
	1091.53	31.9559	5.65296
	1093.43	27.515	5.24547
	1095.33	23.5217	4.84991
	1097.23	19.5259	4.41882
	1099.13	16.1104	4.01378
	1101.03	13.6578	3.69564
	1102.93	11.3569	3.36999
	1104.83	9.32388	3.0535
	1106.73	7.25095	2.69276
	1108.63	6.33349	2.51664
	1110.53	5.69187	2.38576
	1112.43	5.55903	2.35776
	1114.33	5.42771	2.32974
	1116.23	5.4278	2.32976
	1118.14	3.79809	1.94887
	1120.04	3.7793	1.94404
	1121.94	3.56647	1.88851
	1123.84	3.69041	1.92104
	1125.74	3.00822	1.73442
	1127.64	2.6332	1.62271
	1129.54	1.57315	1.25425
	1131.44	1.74774	1.32202
	1133.34	1.24743	1.11688
	1135.24	1.0535	1.0264
	1137.14	0.804841	0.897129
	1139.04	0.878295	0.937174
	1140.94	0.743449	0.862235
	1142.84	0.494515	0.703217
	1144.74	-0.174857	0.418159
	1146.64	-0.374577	0.612027
	1148.54	-0.423726	0.650942
	1150.44	-0.0789765	0.281028
	1152.34	-0.509216	0.713594
	1154.24	-0.944076	0.971636
	1156.14	-1.00088	1.00044
	1158.04	-0.583797	0.764066
	1159.94	-0.450069	0.670872
	1161.84	-0.524428	0.724174
	1163.74	-0.742909	0.861922
	1165.64	-0.811414	0.900785
	1167.54	-0.568822	0.754203
	1169.44	-0.149466	0.386609
	1171.34	0.11313	0.336348
	1173.24	0.264745	0.514534
	1175.15	1.14988	1.07232
	1177.05	1.95521	1.39829
	1178.95	3.07324	1.75307
	1180.85	4.09916	2.02464
	1182.75	4.7175	2.17198
	1184.65	5.03438	2.24374
	1186.55	5.00191	2.23649
	1188.45	5.06216	2.24993
	1190.35	5.20166	2.28072
	1192.25	5.72346	2.39238
	1194.15	6.77197	2.6023
	1196.05	8.45369	2.90752
	1197.95	9.94577	3.15369
	1199.85	12.587	3.54781
	1201.75	16.1639	4.02044
	1203.65	21.4698	4.63355
	1205.55	27.5797	5.25163
	1207.45	34.6959	5.89032
	1209.35	43.78	6.61665
	1211.25	52.45	7.24224
	1213.15	63.189	7.94915
	1215.05	72.9759	8.5426
	1216.95	81.6426	9.03563
	1218.85	87.6791	9.36371
	1220.75	91.2019	9.54997
	1222.65	91.0437	9.54168
	1224.55	88.3456	9.39924
	1226.45	84.7247	9.2046
	1228.35	80.4571	8.96979
	1230.25	75.8152	8.7072
	1232.15	71.0954	8.43181
	1234.06	66.8862	8.1784
	1235.96	60.8536	7.80087
	1237.86	54.7149	7.39695
	1239.76	48.4375	6.9597
	1241.66	42.6583	6.53133
	1243.56	38.5572	6.20945
	1245.46	35.3571	5.94618
	1247.36	33.3193	5.77229
	1249.26	31.3224	5.59664
	1251.16	29.7409	5.45352
	1253.06	28.8378	5.37008
	1254.96	28.2534	5.31539
	1256.86	27.7009	5.26317
	1258.76	27.1123	5.20695
	1260.66	26.5486	5.15253
	1262.56	25.4384	5.04365
	1264.46	24.9748	4.99748
	1266.36	24.874	4.98738
	1268.26	25.4618	5.04596
	1270.16	25.8513	5.08441
	1272.06	26.1862	5.11725
	1273.96	26.8991	5.18643
	1275.86	27.8256	5.275
	1277.76	29.429	5.42485
	1279.66	31.0496	5.57222
	1281.56	33.2272	5.7643
	1283.46	35.6369	5.96966
	1285.36	38.5673	6.21025
	1287.26	42.7113	6.53539
	1289.16	46.0144	6.78339
	1291.06	50.9782	7.1399
	1292.97	53.4887	7.3136
	1294.87	58.1791	7.62752
	1296.77	60.0393	7.74851
	1298.67	62.1726	7.88496
	1300.57	62.2439	7.88948
	1302.47	59.3172	7.70176
	1304.37	54.4454	7.37871
	1306.27	49.5465	7.03893
	1308.17	40.1323	6.335
	1310.07	33.7785	5.81193
	1311.97	27.8429	5.27664
	1313.87	22.355	4.72811
	1315.77	18.7548	4.33068
	1317.67	13.9962	3.74115
	1319.57	11.1117	3.33342
	1321.47	7.96789	2.82275
	1323.37	6.09326	2.46845
	1325.27	4.58327	2.14086
	1327.17	3.93715	1.98422
	1329.07	3.91894	1.97963
	1330.97	3.17183	1.78096
	1332.87	2.25343	1.50114
	1334.77	1.58552	1.25917
	1336.67	1.14866	1.07176
	1338.57	0.699279	0.836229
	1340.47	0.305539	0.552756
	1342.37	0.04872	0.220726
	1344.27	-0.316645	0.562712
	1346.17	-0.531313	0.728912
	1348.07	-0.564459	0.751305
	1349.98	-0.356655	0.597206
	1351.88	0.103906	0.322345
	1353.78	0.948027	0.973667
	1355.68	1.22507	1.10683
	1357.58	1.73963	1.31895
	1359.48	2.02576	1.42329
	1361.38	3.06286	1.7501
	1363.28	4.36202	2.08854
	1365.18	5.57217	2.36054
	1367.08	6.59548	2.56817
	1368.98	7.06387	2.65779
	1370.88	7.40047	2.72038
	1372.78	7.33071	2.70753
	1374.68	7.19801	2.68291
	1376.58	6.782	2.60423
	1378.48	6.51092	2.55165
	1380.38	6.12641	2.47516
	1382.28	5.95204	2.43968
	1384.18	5.65364	2.37774
	1386.08	5.26073	2.29363
	1387.98	5.35746	2.31462
	1389.88	5.41097	2.32615
	1391.78	5.37527	2.31846
	1393.68	5.07539	2.25286
	1395.58	4.87624	2.20822
	1397.48	4.47804	2.11614
	1399.38	3.64635	1.90954
	1401.28	2.94906	1.71728
	1403.18	2.41067	1.55263
	1405.08	1.85572	1.36225
	1406.98	1.52525	1.23501
	1408.89	1.2168	1.10309
	1410.79	0.942933	0.971047
	1412.69	0.606171	0.77857
	1414.59	0.520616	0.721537
	1416.49	0.595158	0.771465
	1418.39	0.545136	0.738334
	1420.29	0.67942	0.824269
	1422.19	0.291016	0.539459
	1424.09	-0.00740082	0.086028
	1425.99	-0.427946	0.654176
	1427.89	-0.516889	0.71895
	1429.79	-0.37278	0.610557
	1431.69	-0.0782583	0.279747
	1433.59	0.426997	0.65345
	1435.49	0.521618	0.722231
	1437.39	0.324332	0.569502
	1439.29	0.380977	0.617233
	1441.19	0.544791	0.7381
	1443.09	1.11277	1.05488
	1444.99	1.30475	1.14226
	1446.89	1.37055	1.17071
	1448.79	0.852935	0.923545
	1450.69	0.721485	0.849403
	1452.59	0.799393	0.894088
	1454.49	0.904434	0.951017
	1456.39	0.578378	0.760512
	1458.29	0.666721	0.81653
	1460.19	0.497101	0.705054
	1462.09	0.493954	0.702818
	1463.99	0.510879	0.714758
	1465.89	0.601912	0.77583
	1467.8	0.542254	0.736379
	1469.7	0.556946	0.746288
	1471.6	0.203858	0.451507
	1473.5	0.0577277	0.240266
	1475.4	0.00672724	0.0820198
	1477.3	0.00723949	0.0850852
	1479.2	-0.141547	0.376227
	1481.1	-0.109573	0.331018
	1483	-0.153434	0.391707
	1484.9	-0.0971258	0.31165
	1486.8	0.00325465	0.0570496
	1488.7	0.206582	0.454513
	1490.6	0.313136	0.559585
	1492.5	0.452202	0.67246
	1494.4	0.260174	0.510072
	1496.3	0.512519	0.715904
	1498.2	0.725469	0.851745
	1500.1	0.777036	0.881496
	1502	0.77894	0.882576
	1503.9	1.24748	1.11691
	1505.8	1.41055	1.18767
	1507.7	1.89494	1.37657
	1509.6	2.07236	1.43957
	1511.5	1.95265	1.39737
	1513.4	1.85878	1.36337
	1515.3	1.73415	1.31687
	1517.2	2.19362	1.48109
	1519.1	2.48691	1.57699
	1521	2.69253	1.64089
	1522.9	2.70044	1.6433
	1524.81	2.94203	1.71524
	1526.71	3.23294	1.79804
	1528.61	3.73161	1.93174
	1530.51	3.9865	1.99662
	1532.41	4.37807	2.09238
	1534.31	5.04407	2.2459
	1536.21	5.39735	2.32322
	1538.11	5.98224	2.44586
	1540.01	7.31539	2.7047
	1541.91	8.93231	2.9887
	1543.81	10.5584	3.24936
	1545.71	12.3822	3.51883
	1547.61	14.4991	3.80777
	1549.51	16.1513	4.01887
	1551.41	17.2958	4.15882
	1553.31	18.3598	4.28483
	1555.21	19.3977	4.40429
	1557.11	20.561	4.53442
	1559.01	22.0339	4.69403
	1560.91	23.6075	4.85875
	1562.81	25.4175	5.04158
	1564.71	26.8296	5.17973
	1566.61	28.2453	5.31463
	1568.51	29.0949	5.39397
	1570.41	29.9706	5.47454
	1572.31	30.3959	5.51325
	1574.21	31.1201	5.57854
	1576.11	32.2249	5.6767
	1578.01	32.965	5.74151
	1579.91	33.8559	5.81859
	1581.81	34.7575	5.89555
	1583.72	35.6174	5.96803
	1585.62	35.6493	5.9707
	1587.52	34.8396	5.90251
	1589.42	33.6009	5.79663
	1591.32	31.8879	5.64694
	1593.22	29.4588	5.4276
	1595.12	27.4374	5.23807
	1597.02	25.2497	5.02491
	1598.92	23.2992	4.82693
	1600.82	20.9362	4.57561
	1602.72	19.262	4.38885
	1604.62	18.1539	4.26074
	1606.52	16.7754	4.09578
	1608.42	15.3018	3.91175
	1610.32	13.4442	3.66664
	1612.22	12.0688	3.47401
	1614.12	10.8889	3.29983
	1616.02	10.2162	3.19628
	1617.92	8.97718	2.99619
	1619.82	7.93572	2.81704
	1621.72	6.79611	2.60693
	1623.62	6.0555	2.46079
	1625.52	5.62969	2.3727
	1627.42	4.94756	2.22431
	1629.32	4.6523	2.15692
	1631.22	4.02201	2.00549
	1633.12	3.53014	1.87887
	1635.02	3.17401	1.78157
	1636.92	2.81685	1.67835
	1638.82	2.33659	1.52859
	1640.73	2.07953	1.44206
	1642.63	1.81837	1.34847
	1644.53	1.53728	1.23987
	1646.43	1.32117	1.14942
	1648.33	0.98061	0.990258
	1650.23	0.691077	0.831311
	1652.13	0.953541	0.976494
	1654.03	1.28277	1.13259
	1655.93	1.39353	1.18048
	1657.83	1.05236	1.02585
	1659.73	0.780272	0.88333
	1661.63	0.377495	0.614407
	1663.53	-0.028971	0.170209
	1665.43	-0.0137578	0.117294
	1667.33	-0.047119	0.217069
	1669.23	0.180238	0.424545
	1671.13	0.0853856	0.292208
	1673.03	0.400617	0.632943
	1674.93	0.255127	0.505101
	1676.83	0.0568658	0.238466
	1678.73	0.1215	0.348568
	1680.63	0.453559	0.673468
	1682.53	0.869205	0.932311
	1684.43	0.834794	0.91367
	1686.33	0.84868	0.921238
	1688.23	0.983877	0.991906
	1690.13	1.29628	1.13854
	1692.03	1.36087	1.16656
	1693.93	1.59265	1.262
	1695.83	2.06752	1.43789
	1697.73	2.5547	1.59834
	1699.64	2.93266	1.7125
	1701.54	3.64666	1.90962
	1703.44	4.83501	2.19887
	1705.34	6.36527	2.52295
	1707.24	8.2506	2.87239
	1709.14	10.1097	3.17958
	1711.04	13.1103	3.62081
	1712.94	16.4107	4.05101
	1714.84	20.118	4.48531
	1716.74	23.6462	4.86274
	1718.64	27.4102	5.23548
	1720.54	31.6904	5.62942
	1722.44	36.4682	6.03889
	1724.34	41.9787	6.4791
	1726.24	47.1242	6.8647
	1728.14	51.0184	7.14272
	1730.04	53.5745	7.31946
	1731.94	55.5649	7.45419
	1733.84	56.5082	7.51719
	1735.74	57.1544	7.56005
	1737.64	57.1339	7.5587
	1739.54	57.1604	7.56045
	1741.44	56.5988	7.52321
	1743.34	55.9914	7.48274
	1745.24	55.2567	7.43348
	1747.14	54.821	7.40412
	1749.04	53.75	7.33144
	1750.94	52.4819	7.24444
	1752.84	50.694	7.11998
	1754.74	48.7985	6.98559
	1756.64	46.6869	6.83278
	1758.55	44.7985	6.69317
	1760.45	42.8659	6.5472
	1762.35	40.9586	6.39989
	1764.25	38.8567	6.23351
	1766.15	36.3996	6.03321
	1768.05	33.5022	5.78811
	1769.95	30.7763	5.54764
	1771.85	28.6325	5.35093
	1773.75	26.3891	5.13703
	1775.65	23.6778	4.86599
	1777.55	21.071	4.59032
	1779.45	19.0417	4.36368
	1781.35	17.5034	4.1837
	1783.25	16.0611	4.00763
	1785.15	14.6474	3.82719
	1787.05	13.4723	3.67046
	1788.95	12.5423	3.5415
	1790.85	11.9335	3.45449
	1792.75	11.1072	3.33275
	1794.65	10.6109	3.25744
	1796.55	9.91952	3.14953
	1798.45	10.2164	3.19631
	1800.35	11.181	3.3438
	1802.25	11.4525	3.38416
	1804.15	10.9019	3.30181
	1806.05	10.9902	3.31515
	1807.95	11.7653	3.43006
	1809.85	11.5465	3.39801
	1811.75	9.40884	3.06738
	1813.65	7.55279	2.74823
	1815.56	7.66806	2.76913
	1817.46	7.97147	2.82338
	1819.36	8.32089	2.88459
	1821.26	8.58623	2.93023
	1823.16	9.3637	3.06002
	1825.06	9.95196	3.15467
	1826.96	10.9104	3.30309
	1828.86	11.5512	3.3987
	1830.76	12.2041	3.49344
	1832.66	12.8281	3.58163
	1834.56	13.5219	3.67722
	1836.46	14.4319	3.79893
	1838.36	14.9144	3.86192
	1840.26	15.4376	3.92907
	1842.16	15.5577	3.94432
	1844.06	15.8717	3.98394
	1845.96	15.7976	3.97462
	1847.86	15.5193	3.93945
	1849.76	15.2108	3.90011
	1851.66	14.6561	3.82833
	1853.56	13.631	3.69202
	1855.46	12.4618	3.53013
	1857.36	11.2784	3.35833
	1859.26	9.77754	3.12691
	1861.16	8.36766	2.89269
	1863.06	7.42172	2.72428
	1864.96	6.33908	2.51775
	1866.86	5.10502	2.25943
	1868.76	3.66801	1.9152
	1870.66	2.05976	1.43519
	1872.56	0.960087	0.97984
	1874.47	0.264612	0.514405
	1876.37	-0.041765	0.204365
	1878.27	-0.412038	0.641902
	1880.17	-0.310518	0.557242
	1882.07	0.057175	0.239113
	1883.97	0.687087	0.828907
	1885.87	1.39912	1.18285
	1887.77	2.40906	1.55211
	1889.67	4.03073	2.00767
	1891.57	5.44091	2.33257
	1893.47	6.46165	2.54198
	1895.37	6.63525	2.5759
	1897.27	6.77259	2.60242
	1899.17	6.23268	2.49653
	1901.07	5.43595	2.33151
	1902.97	4.35019	2.08571
	1904.87	3.50842	1.87308
	1906.77	3.20786	1.79105
	1908.67	3.45593	1.85901
	1910.57	4.55516	2.13428
	1912.47	5.42868	2.32995
	1914.37	7.11268	2.66696
	1916.27	8.53408	2.92131
	1918.17	12.1502	3.48571
	1920.07	15.8494	3.98113
	1921.97	21.5344	4.64052
	1923.87	27.4727	5.24144
	1925.77	32.3804	5.69038
	1927.67	35.0783	5.92269
	1929.57	35.1159	5.92587
	1931.48	32.6976	5.71818
	1933.38	29.8958	5.4677
	1935.28	25.947	5.09382
	1937.18	23.68	4.86621
	1939.08	19.6507	4.43291
	1940.98	15.8761	3.98448
	1942.88	11.9627	3.45872
	1944.78	8.69924	2.94945
	1946.68	5.91509	2.4321
	1948.58	3.86706	1.96648
	1950.48	2.46669	1.57057
	1952.38	1.66224	1.28928
	1954.28	0.828739	0.910351
	1956.18	0.394626	0.628193
	1958.08	0.273251	0.522734
	1959.98	0.16349	0.404339
	1961.88	-0.00570164	0.0755092
	1963.78	-0.321795	0.56727
	1965.68	-0.357003	0.597497
	1967.58	-0.483927	0.695649
	1969.48	-0.501596	0.708234
	1971.38	-0.476403	0.69022
	1973.28	-0.450469	0.67117
	1975.18	-0.268663	0.518327
	1977.08	0.0496643	0.222855
	1978.98	0.419586	0.647755
	1980.88	0.16125	0.40156
	1982.78	0.0814947	0.285473
	1984.68	0.25884	0.508763
	1986.58	0.332232	0.576395
	1988.48	0.276563	0.525893
	1990.39	0.165859	0.407258
	1992.29	0.337801	0.581206
	1994.19	0.510989	0.714835
	1996.09	0.657791	0.811043
	1997.99	0.775972	0.880893
	1999.89	0.86117	0.927993
	2001.79	0.877456	0.936726
	2003.69	1.00589	1.00294
	2005.59	0.964703	0.982193
	2007.49	0.683371	0.826662
	2009.39	0.585092	0.764913
	2011.29	0.613654	0.783361
	2013.19	0.847509	0.920603
	2015.09	0.936485	0.967722
	2016.99	1.06229	1.03067
	2018.89	0.967074	0.983399
	2020.79	0.843902	0.918641
	2022.69	0.917376	0.957798
	2024.59	0.7311	0.855044
	2026.49	0.681749	0.825681
	2028.39	0.700954	0.83723
	2030.29	0.848922	0.92137
	2032.19	0.753591	0.868096
	2034.09	0.675163	0.821683
	2035.99	0.678412	0.823658
	2037.89	0.872435	0.934042
	2039.79	1.01178	1.00587
	2041.69	0.912406	0.955199
	2043.59	1.01706	1.00849
	2045.49	1.16496	1.07933
	2047.39	1.49762	1.22377
	2049.3	1.53996	1.24095
	2051.2	1.58723	1.25986
	2053.1	1.49182	1.2214
	2055	1.62205	1.2736
	2056.9	1.54159	1.24161
	2058.8	1.55076	1.24529
	2060.7	1.61358	1.27027
	2062.6	1.59657	1.26356
	2064.5	1.40049	1.18342
	2066.4	1.36982	1.17039
	2068.3	1.36401	1.16791
	2070.2	1.42242	1.19265
	2072.1	1.1712	1.08222
	2074	0.999051	0.999526
	2075.9	0.607618	0.779499
	2077.8	0.458125	0.676849
	2079.7	0.180399	0.424734
	2081.6	-0.0128286	0.113263
	2083.5	0.0992141	0.314983
	2085.4	0.163161	0.403932
	2087.3	0.0823803	0.28702
	2089.2	-0.057475	0.239739
	2091.1	-0.0522538	0.228591
	2093	-0.085262	0.291997
	2094.9	-0.140453	0.37477
	2096.8	0.0988878	0.314464
	2098.7	0.232028	0.481693
	2100.6	0.231055	0.480682
	2102.5	0.356379	0.596975
	2104.4	0.572234	0.756462
	2106.31	0.502056	0.708559
	2108.21	0.391911	0.626028
	2110.11	0.41977	0.647897
	2112.01	0.523745	0.723703
	2113.91	0.531297	0.728901
	2115.81	0.66717	0.816805
	2117.71	0.771749	0.878493
	2119.61	0.713842	0.844892
	2121.51	0.647492	0.804669
	2123.41	0.677129	0.822878
	2125.31	0.676037	0.822215
	2127.21	0.637549	0.798466
	2129.11	0.522445	0.722804
	2131.01	0.339936	0.583041
	2132.91	0.0957045	0.309361
	2134.81	-0.124006	0.352145
	2136.71	-0.129189	0.359428
	2138.61	-0.0392818	0.198196
	2140.51	-0.00907133	0.0952435
	2142.41	0.10354	0.321776
	2144.31	0.241085	0.491005
	2146.21	0.311181	0.557836
	2148.11	0.198585	0.445629
	2150.01	-0.0943219	0.307119
	2151.91	-0.0467783	0.216283
	2153.81	0.0927161	0.304493
	2155.71	0.28032	0.529453
	2157.61	0.132428	0.363907
	2159.51	0.093358	0.305545
	2161.41	0.0789783	0.281031
	2163.31	0.190073	0.435974
	2165.22	0.279462	0.528642
	2167.12	0.18076	0.425159
	2169.02	0.137994	0.371475
	2170.92	-0.0130871	0.114399
	2172.82	-0.186601	0.431973
	2174.72	-0.168421	0.410391
	2176.62	-0.00695792	0.0834141
	2178.52	0.0220332	0.148436
	2180.42	-0.0938171	0.306296
	2182.32	0.0475993	0.218173
	2184.22	0.141931	0.376738
	2186.12	0.196623	0.443422
	2188.02	0.0541874	0.232782
	2189.92	0.177863	0.421738
	2191.82	-0.108298	0.329086
	2193.72	-0.132344	0.363791
	2195.62	-0.2331	0.482805
	2197.52	-0.0111583	0.105633
	2199.42	0.0430302	0.207437
	2201.32	0.267802	0.517496
	2203.22	-0.141944	0.376755
