Generated file C:/Users/didvk/Downloads/Dioptas_Win64_0.5.0/1_mask&dat&fxye_1position/4_ReMoB2_430psi_23p4GPa_S_P1_C1_D1w_031.fxye using DIOPTAS
# == pyFAI calibration ==
# Distance Sample to Detector: 0.21643023575112377 m
# PONI: 8.848e-02, 8.638e-02 m
# Rotations: 0.008179 -0.001145 -0.000000 rad
# 
# == Fit2d calibration ==
# Distance Sample-beamCenter: 216.438 mm
# Center: x=491.896, y=512.970 pix
# Tilt: 0.473 deg  TiltPlanRot: -172.032 deg
# 
# Detector Pilatus CdTe 1M	 PixelSize= 1.720e-04, 1.720e-04 m
#    Detector has a mask: True 
#    Detector has a dark current: False 
#    detector has a flat field: False 
# 
# Wavelength: 4.133e-11 m
# Mask applied: None
# Dark current applied: None
# Flat field applied: None
# Polarization factor: None
# Normalization factor: None
BANK	1	1006	1006 CONS	293.393	1.90033 0.4133 0.0 FXYE
	293.393	0.66619	0.816205
	295.294	0.506532	0.711711
	297.194	0.427968	0.654192
	299.094	0.20505	0.452825
	300.995	-0.162729	0.403397
	302.895	-0.183199	0.428017
	304.795	0.028533	0.168917
	306.696	0.591301	0.768961
	308.596	0.735277	0.857483
	310.496	0.826519	0.909131
	312.397	1.05528	1.02727
	314.297	1.31732	1.14775
	316.197	1.21908	1.10412
	318.098	0.885885	0.941215
	319.998	0.911222	0.954579
	321.898	1.00551	1.00275
	323.799	1.72817	1.3146
	325.699	1.6811	1.29657
	327.599	1.5839	1.25853
	329.5	1.7431	1.32027
	331.4	2.48366	1.57596
	333.3	3.30532	1.81805
	335.201	3.78744	1.94613
	337.101	4.82523	2.19664
	339.001	7.50994	2.74043
	340.902	13.4414	3.66624
	342.802	23.838	4.88242
	344.702	35.5114	5.95914
	346.603	46.1025	6.78988
	348.503	50.6781	7.11886
	350.403	46.7712	6.83895
	352.304	35.6554	5.97122
	354.204	22.8483	4.77999
	356.104	13.3844	3.65847
	358.005	7.56326	2.75014
	359.905	4.46771	2.1137
	361.805	2.46219	1.56914
	363.706	1.49752	1.22373
	365.606	1.16644	1.08002
	367.506	1.0278	1.0138
	369.407	0.615556	0.784574
	371.307	0.578848	0.760821
	373.207	0.635518	0.797194
	375.108	0.516977	0.719011
	377.008	0.901724	0.949592
	378.908	1.02609	1.01296
	380.808	1.11707	1.05692
	382.709	1.24134	1.11416
	384.609	1.30299	1.14149
	386.509	1.34326	1.15899
	388.41	0.623137	0.789391
	390.31	0.66921	0.818053
	392.21	0.33275	0.576845
	394.111	0.550399	0.741889
	396.011	0.81633	0.90351
	397.911	0.97162	0.985708
	399.812	1.41794	1.19077
	401.712	1.01047	1.00522
	403.612	0.629654	0.793508
	405.513	0.353662	0.594695
	407.413	-0.175088	0.418435
	409.313	0.174886	0.418193
	411.214	0.550852	0.742194
	413.114	1.03977	1.01969
	415.014	1.6579	1.28759
	416.915	1.61564	1.27108
	418.815	1.39517	1.18117
	420.715	0.781994	0.884304
	422.616	0.812771	0.901538
	424.516	0.792585	0.890272
	426.416	0.888746	0.942733
	428.317	0.396298	0.629522
	430.217	0.54982	0.741499
	432.117	0.488083	0.698629
	434.018	0.541163	0.735638
	435.918	0.708689	0.841837
	437.818	0.509949	0.714107
	439.719	0.273183	0.522669
	441.619	-0.032078	0.179103
	443.519	-0.0693254	0.263297
	445.42	0.41337	0.642938
	447.32	0.477694	0.691154
	449.22	0.748935	0.865411
	451.121	0.271559	0.521114
	453.021	-0.0310153	0.176112
	454.921	0.0360978	0.189994
	456.822	0.215252	0.463952
	458.722	0.162549	0.403173
	460.622	-0.0248945	0.15778
	462.523	0.0839918	0.289813
	464.423	0.500732	0.707624
	466.323	0.438885	0.662484
	468.224	0.69088	0.831192
	470.124	0.738998	0.85965
	472.024	1.24137	1.11417
	473.924	1.68493	1.29805
	475.825	1.31098	1.14498
	477.725	0.686687	0.828666
	479.625	0.317621	0.563578
	481.526	0.329309	0.573855
	483.426	0.0380465	0.195055
	485.326	0.205611	0.453443
	487.227	0.236284	0.486091
	489.127	0.272676	0.522184
	491.027	0.588961	0.767438
	492.928	0.516059	0.718373
	494.828	1.02084	1.01036
	496.728	0.936065	0.967505
	498.629	0.704844	0.83955
	500.529	0.108063	0.32873
	502.429	-0.19092	0.436944
	504.33	0.276576	0.525905
	506.23	0.460951	0.678934
	508.13	0.552197	0.7431
	510.031	0.274429	0.52386
	511.931	0.184559	0.429603
	513.831	0.284791	0.533658
	515.732	0.448068	0.669379
	517.632	0.907683	0.952724
	519.532	0.759037	0.871227
	521.433	0.337389	0.580852
	523.333	0.105417	0.324679
	525.233	0.337024	0.580538
	527.134	0.668527	0.817635
	529.034	0.699525	0.836376
	530.934	0.288291	0.536927
	532.835	0.410239	0.640499
	534.735	0.819434	0.905226
	536.635	0.994311	0.997151
	538.536	0.434021	0.658803
	540.436	-0.26326	0.513088
	542.336	0.568359	0.753896
	544.237	0.907172	0.952456
	546.137	1.02703	1.01343
	548.037	0.536044	0.73215
	549.938	0.505412	0.710923
	551.838	0.401308	0.633489
	553.738	-0.156827	0.396014
	555.639	-0.311156	0.557814
	557.539	-0.088213	0.297007
	559.439	0.347642	0.589612
	561.34	0.693737	0.832909
	563.24	0.693455	0.83274
	565.14	1.31669	1.14747
	567.041	2.89028	1.70008
	568.941	4.88809	2.2109
	570.841	7.38457	2.71746
	572.741	9.46784	3.07699
	574.642	10.1131	3.18011
	576.542	10.6424	3.26227
	578.442	9.90288	3.14688
	580.343	8.49859	2.91523
	582.243	6.74984	2.59805
	584.143	5.11227	2.26103
	586.044	3.8419	1.96008
	587.944	2.66958	1.63389
	589.844	2.08354	1.44345
	591.745	1.51617	1.23133
	593.645	1.89399	1.37622
	595.545	1.89604	1.37697
	597.446	1.96883	1.40315
	599.346	1.57585	1.25533
	601.246	1.00963	1.0048
	603.147	0.68685	0.828764
	605.047	0.478348	0.691627
	606.947	0.951199	0.975294
	608.848	1.0727	1.03571
	610.748	1.40854	1.18682
	612.648	1.1683	1.08088
	614.549	0.638076	0.798796
	616.449	0.737645	0.858863
	618.349	0.844607	0.919025
	620.25	1.36317	1.16755
	622.15	1.88352	1.37241
	624.05	2.89093	1.70027
	625.951	4.10811	2.02685
	627.851	6.20041	2.49006
	629.751	9.10173	3.01691
	631.652	14.559	3.81562
	633.552	22.3238	4.72481
	635.452	31.104	5.57709
	637.353	37.5371	6.12675
	639.253	37.9615	6.16129
	641.153	32.1942	5.67399
	643.054	22.7683	4.77162
	644.954	14.4707	3.80403
	646.854	9.23909	3.03959
	648.755	7.11447	2.6673
	650.655	6.59085	2.56726
	652.555	7.53993	2.74589
	654.456	8.93949	2.9899
	656.356	10.3084	3.21067
	658.256	11.1885	3.34492
	660.157	11.5521	3.39883
	662.057	11.158	3.34035
	663.957	9.93412	3.15184
	665.857	8.34105	2.88809
	667.758	6.82535	2.61254
	669.658	5.86694	2.42218
	671.558	5.82953	2.41444
	673.459	6.14113	2.47813
	675.359	7.44268	2.72813
	677.259	9.81104	3.13226
	679.16	13.1571	3.62727
	681.06	19.607	4.42798
	682.96	27.5863	5.25227
	684.861	39.5261	6.28698
	686.761	56.7602	7.53394
	688.661	72.0281	8.48694
	690.562	94.2287	9.70714
	692.462	109.057	10.443
	694.362	132.63	11.5165
	696.263	139.784	11.823
	698.163	143.702	11.9876
	700.063	124.865	11.1743
	701.964	102.838	10.1409
	703.864	74.25	8.61684
	705.764	52.3453	7.23501
	707.665	35.2961	5.94105
	709.565	23.5587	4.85373
	711.465	15.7736	3.9716
	713.366	10.2987	3.20916
	715.266	7.21577	2.68622
	717.166	5.05797	2.24899
	719.067	3.18765	1.7854
	720.967	1.65737	1.28739
	722.867	0.717745	0.847199
	724.768	0.480532	0.693204
	726.668	0.551232	0.74245
	728.568	0.849303	0.921576
	730.469	0.612391	0.782554
	732.369	0.338612	0.581904
	734.269	0.396809	0.629928
	736.17	0.833915	0.913189
	738.07	0.669906	0.818478
	739.97	0.7658	0.8751
	741.871	0.270112	0.519723
	743.771	0.474026	0.688495
	745.671	-0.061612	0.248218
	747.572	-0.302125	0.549659
	749.472	-0.104986	0.324016
	751.372	0.302868	0.550335
	753.273	0.665926	0.816043
	755.173	0.669566	0.81827
	757.073	0.49552	0.703931
	758.973	0.945826	0.972536
	760.874	1.34085	1.15795
	762.774	1.62096	1.27317
	764.674	1.42137	1.19221
	766.575	1.4796	1.21639
	768.475	1.3386	1.15698
	770.375	0.710588	0.842964
	772.276	0.244411	0.49438
	774.176	0.231755	0.48141
	776.076	0.54496	0.738214
	777.977	0.817166	0.903972
	779.877	0.593006	0.770069
	781.777	-0.00119348	0.0345468
	783.678	-0.157171	0.396448
	785.578	0.292596	0.540922
	787.478	1.17783	1.08528
	789.379	0.989295	0.994633
	791.279	0.603326	0.776741
	793.179	0.22421	0.473509
	795.08	0.256256	0.506217
	796.98	0.429067	0.655032
	798.88	0.603864	0.777087
	800.781	0.709972	0.842598
	802.681	0.828944	0.910464
	804.581	0.468254	0.684291
	806.482	0.394305	0.627937
	808.382	0.0354715	0.188339
	810.282	0.283204	0.532169
	812.183	0.459186	0.677633
	814.083	0.752656	0.867557
	815.983	0.633122	0.79569
	817.884	0.809746	0.899859
	819.784	0.669895	0.818471
	821.684	0.447812	0.669187
	823.585	0.48223	0.694427
	825.485	0.931676	0.965234
	827.385	0.844937	0.919204
	829.286	0.24817	0.498167
	831.186	0.0992238	0.314998
	833.086	-0.223581	0.472843
	834.987	0.00810543	0.0900301
	836.887	-0.105001	0.324039
	838.787	0.305829	0.553018
	840.688	0.548502	0.740609
	842.588	0.809931	0.899962
	844.488	0.74012	0.860302
	846.389	0.598434	0.773585
	848.289	0.202027	0.449474
	850.189	0.169785	0.41205
	852.089	-0.0315101	0.177511
	853.99	0.285649	0.534461
	855.89	0.353399	0.594474
	857.79	0.555367	0.74523
	859.691	0.669771	0.818395
	861.591	0.710808	0.843094
	863.491	0.532676	0.729847
	865.392	0.295014	0.543152
	867.292	0.00670819	0.0819035
	869.192	0.203205	0.450783
	871.093	0.0564325	0.237555
	872.993	0.216782	0.465598
	874.893	0.316053	0.562186
	876.794	0.217149	0.465993
	878.694	-0.0800689	0.282965
	880.594	-0.0537597	0.231861
	882.495	0.14152	0.376191
	884.395	0.387139	0.622205
	886.295	0.0957699	0.309467
	888.196	-0.0774187	0.278242
	890.096	0.15359	0.391906
	891.996	0.761935	0.872889
	893.897	1.31708	1.14764
	895.797	1.80986	1.34531
	897.697	2.65999	1.63095
	899.598	3.6862	1.91995
	901.498	5.51203	2.34777
	903.398	7.8686	2.8051
	905.299	11.0294	3.32105
	907.199	15.3289	3.91522
	909.099	21.5436	4.64151
	911	29.9987	5.47711
	912.9	41.5258	6.44405
	914.8	56.4177	7.51117
	916.701	75.4715	8.68743
	918.601	100.242	10.0121
	920.501	132.267	11.5007
	922.402	176.736	13.2942
	924.302	231.047	15.2002
	926.202	298.866	17.2877
	928.103	373.998	19.339
	930.003	449.038	21.1905
	931.903	516.103	22.7179
	933.804	547.132	23.3908
	935.704	544.894	23.343
	937.604	500.472	22.3712
	939.505	455.211	21.3357
	941.405	405.346	20.1332
	943.305	364.014	19.0791
	945.206	331.051	18.1948
	947.106	304.55	17.4514
	949.006	290.212	17.0356
	950.906	278.101	16.6763
	952.807	265.468	16.2932
	954.707	245.808	15.6783
	956.607	219.594	14.8187
	958.508	184.606	13.587
	960.408	148.676	12.1933
	962.308	115.057	10.7265
	964.209	87.2772	9.34222
	966.109	66.039	8.12644
	968.009	49.958	7.0681
	969.91	37.8343	6.15096
	971.81	29.0272	5.38769
	973.71	22.3365	4.72615
	975.611	17.0464	4.12873
	977.511	12.589	3.54809
	979.411	8.96992	2.99498
	981.312	6.29445	2.50887
	983.212	4.36518	2.0893
	985.112	2.81484	1.67775
	987.013	1.50854	1.22823
	988.913	0.654922	0.809272
	990.813	0.285072	0.533921
	992.714	-0.0298086	0.172652
	994.614	-0.23298	0.48268
	996.514	-0.315717	0.561887
	998.415	-0.475403	0.689495
	1000.31	-0.607975	0.779728
	1002.22	-0.467561	0.683785
	1004.12	-0.169146	0.411274
	1006.02	0.174205	0.417378
	1007.92	0.145651	0.381643
	1009.82	0.271376	0.520938
	1011.72	0.719025	0.847953
	1013.62	1.11599	1.0564
	1015.52	1.28495	1.13356
	1017.42	1.50559	1.22703
	1019.32	2.18327	1.47759
	1021.22	3.93064	1.98258
	1023.12	5.28556	2.29904
	1025.02	8.24567	2.87153
	1026.92	11.162	3.34096
	1028.82	13.9975	3.74132
	1030.72	18.2035	4.26655
	1032.62	21.5201	4.63897
	1034.52	25.3718	5.03705
	1036.42	27.6566	5.25895
	1038.32	29.1428	5.39841
	1040.22	30.1779	5.49344
	1042.12	31.1619	5.58228
	1044.02	30.8876	5.55766
	1045.92	32.0169	5.65835
	1047.82	32.9194	5.73754
	1049.72	33.7966	5.81349
	1051.62	33.7089	5.80593
	1053.52	33.4601	5.78447
	1055.42	32.6787	5.71653
	1057.32	31.635	5.6245
	1059.23	29.7913	5.45814
	1061.13	28.1547	5.3061
	1063.03	27.5044	5.24446
	1064.93	27.6451	5.25786
	1066.83	28.1617	5.30676
	1068.73	29.1387	5.39803
	1070.63	30.676	5.5386
	1072.53	32.4129	5.69323
	1074.43	34.6032	5.88244
	1076.33	37.2447	6.10284
	1078.23	39.8308	6.31117
	1080.13	42.5855	6.52576
	1082.03	45.5033	6.74562
	1083.93	48.2209	6.94412
	1085.83	50.3724	7.09735
	1087.73	52.3792	7.23735
	1089.63	53.6777	7.32651
	1091.53	53.8106	7.33557
	1093.43	52.9874	7.27925
	1095.33	50.8209	7.12888
	1097.23	47.2915	6.87688
	1099.13	43.6091	6.60372
	1101.03	39.0471	6.24877
	1102.93	34.9417	5.91115
	1104.83	31.0256	5.57006
	1106.73	27.296	5.22455
	1108.63	23.6811	4.86632
	1110.53	20.0029	4.47246
	1112.43	16.7125	4.08809
	1114.33	14.0746	3.75162
	1116.23	11.8636	3.44436
	1118.14	9.40185	3.06624
	1120.04	7.97979	2.82485
	1121.94	6.78187	2.6042
	1123.84	5.95656	2.44061
	1125.74	4.94485	2.2237
	1127.64	4.18792	2.04644
	1129.54	4.03082	2.00769
	1131.44	3.93761	1.98434
	1133.34	3.46013	1.86014
	1135.24	2.96901	1.72308
	1137.14	2.49397	1.57923
	1139.04	2.01648	1.42003
	1140.94	1.7793	1.33391
	1142.84	1.83452	1.35444
	1144.74	1.49348	1.22208
	1146.64	1.1298	1.06292
	1148.54	0.954722	0.977099
	1150.44	0.509693	0.713928
	1152.34	0.267293	0.517004
	1154.24	-0.143703	0.379081
	1156.14	-0.320925	0.566502
	1158.04	-0.518597	0.720137
	1159.94	-0.686812	0.828741
	1161.84	-0.829547	0.910795
	1163.74	-0.839564	0.916277
	1165.64	-0.776759	0.881339
	1167.54	-0.970658	0.98522
	1169.44	-0.947963	0.973634
	1171.34	-0.726763	0.852504
	1173.24	-0.848256	0.921008
	1175.15	-0.670691	0.818957
	1177.05	-0.565881	0.752251
	1178.95	-0.12885	0.358957
	1180.85	-0.0222642	0.149212
	1182.75	0.324612	0.569747
	1184.65	0.508695	0.713229
	1186.55	0.839761	0.916385
	1188.45	1.19101	1.09133
	1190.35	2.09559	1.44762
	1192.25	3.00322	1.73298
	1194.15	3.73567	1.93279
	1196.05	4.96544	2.22833
	1197.95	6.37555	2.52499
	1199.85	7.37227	2.71519
	1201.75	7.9018	2.81101
	1203.65	8.57045	2.92753
	1205.55	9.4399	3.07244
	1207.45	10.6994	3.27099
	1209.35	12.2001	3.49287
	1211.25	14.1482	3.76141
	1213.15	16.749	4.09255
	1215.05	19.748	4.44387
	1216.95	23.5402	4.85182
	1218.85	27.7002	5.2631
	1220.75	33.3259	5.77286
	1222.65	40.355	6.35256
	1224.55	48.0619	6.93267
	1226.45	57.7919	7.6021
	1228.35	67.8877	8.2394
	1230.25	79.2208	8.90061
	1232.15	89.2255	9.44592
	1234.06	96.7512	9.83622
	1235.96	99.4594	9.97293
	1237.86	98.3031	9.91479
	1239.76	94.1561	9.70341
	1241.66	89.8476	9.4788
	1243.56	83.1341	9.11779
	1245.46	76.453	8.74374
	1247.36	69.8767	8.35923
	1249.26	63.8849	7.9928
	1251.16	57.8011	7.6027
	1253.06	53.344	7.3037
	1254.96	48.6613	6.97577
	1256.86	45.145	6.719
	1258.76	41.8537	6.46944
	1260.66	39.338	6.272
	1262.56	37.7547	6.14448
	1264.46	36.8385	6.06947
	1266.36	35.9734	5.99778
	1268.26	36.1518	6.01264
	1270.16	35.9059	5.99215
	1272.06	35.6462	5.97044
	1273.96	35.3934	5.94924
	1275.86	35.5767	5.96462
	1277.76	36.3549	6.02951
	1279.66	36.5175	6.04297
	1281.56	36.7578	6.06282
	1283.46	36.7584	6.06287
	1285.36	36.8154	6.06757
	1287.26	36.3782	6.03144
	1289.16	36.3379	6.0281
	1291.06	36.9758	6.08077
	1292.97	37.6456	6.1356
	1294.87	38.0803	6.17093
	1296.77	39.172	6.25875
	1298.67	40.2126	6.34134
	1300.57	41.4953	6.44169
	1302.47	42.9678	6.55498
	1304.37	45.0784	6.71404
	1306.27	46.534	6.82158
	1308.17	48.1616	6.93986
	1310.07	49.3107	7.02216
	1311.97	49.8782	7.06245
	1313.87	50.2981	7.09212
	1315.77	49.6535	7.04652
	1317.67	48.5964	6.97111
	1319.57	46.4413	6.81479
	1321.47	43.2904	6.57954
	1323.37	39.1496	6.25697
	1325.27	34.7712	5.89671
	1327.17	29.6839	5.4483
	1329.07	24.7647	4.97641
	1330.97	19.5522	4.42179
	1332.87	14.9715	3.8693
	1334.77	11.3011	3.36171
	1336.67	8.53049	2.9207
	1338.57	6.24565	2.49913
	1340.47	4.32362	2.07933
	1342.37	2.94338	1.71563
	1344.27	2.09141	1.44617
	1346.17	1.87754	1.37023
	1348.07	1.23501	1.11131
	1349.98	0.452272	0.672512
	1351.88	0.0723439	0.268968
	1353.78	-0.48559	0.696843
	1355.68	-0.694789	0.83354
	1357.58	-0.771857	0.878554
	1359.48	-0.304861	0.552142
	1361.38	-0.173856	0.416961
	1363.28	0.0139986	0.118316
	1365.18	0.292336	0.540681
	1367.08	0.90479	0.951205
	1368.98	1.20951	1.09978
	1370.88	1.60164	1.26556
	1372.78	1.85166	1.36076
	1374.68	2.50792	1.58364
	1376.58	3.28285	1.81186
	1378.48	4.22175	2.05469
	1380.38	4.84703	2.2016
	1382.28	5.23895	2.28887
	1384.18	5.50721	2.34674
	1386.08	6.04993	2.45966
	1387.98	6.73417	2.59503
	1389.88	7.29948	2.70175
	1391.78	8.17139	2.85856
	1393.68	8.73954	2.95627
	1395.58	9.2575	3.04261
	1397.48	9.44808	3.07377
	1399.38	9.63604	3.1042
	1401.28	10.0726	3.17373
	1403.18	10.4109	3.2266
	1405.08	10.4788	3.2371
	1406.98	10.4586	3.23398
	1408.89	9.59131	3.09698
	1410.79	8.63684	2.93885
	1412.69	7.322	2.70592
	1414.59	5.94241	2.43771
	1416.49	4.0968	2.02406
	1418.39	3.20725	1.79088
	1420.29	2.72868	1.65187
	1422.19	2.13699	1.46184
	1424.09	1.39481	1.18102
	1425.99	0.402066	0.634087
	1427.89	-0.322009	0.567458
	1429.79	-0.196494	0.443277
	1431.69	0.1957	0.44238
	1433.59	0.329893	0.574364
	1435.49	-0.0780813	0.27943
	1437.39	-0.242014	0.49195
	1439.29	-0.360569	0.600474
	1441.19	-0.235017	0.484785
	1443.09	-0.0386309	0.196547
	1444.99	0.174571	0.417817
	1446.89	0.113413	0.336769
	1448.79	-0.302208	0.549735
	1450.69	-0.250747	0.500746
	1452.59	-0.103924	0.322373
	1454.49	0.148171	0.38493
	1456.39	0.358574	0.59881
	1458.29	0.303337	0.550761
	1460.19	0.164626	0.405742
	1462.09	0.105684	0.325091
	1463.99	0.360509	0.600424
	1465.89	0.494795	0.703417
	1467.8	0.581301	0.762431
	1469.7	0.955755	0.977627
	1471.6	0.991729	0.995856
	1473.5	0.984101	0.992019
	1475.4	0.935363	0.967142
	1477.3	1.0108	1.00539
	1479.2	0.859796	0.927252
	1481.1	0.464893	0.681831
	1483	0.227346	0.476808
	1484.9	0.476858	0.690549
	1486.8	0.756703	0.869887
	1488.7	0.650662	0.806636
	1490.6	0.538287	0.733681
	1492.5	0.69324	0.83261
	1494.4	0.507458	0.712361
	1496.3	0.0672074	0.259244
	1498.2	-0.30545	0.552675
	1500.1	-0.0664945	0.257865
	1502	0.215622	0.464351
	1503.9	0.488074	0.698623
	1505.8	0.559911	0.748272
	1507.7	0.33532	0.579068
	1509.6	0.307748	0.55475
	1511.5	0.434444	0.659124
	1513.4	0.5876	0.766551
	1515.3	0.528378	0.726896
	1517.2	0.708683	0.841833
	1519.1	0.848813	0.921311
	1521	1.08808	1.04311
	1522.9	1.49458	1.22253
	1524.81	1.70562	1.30599
	1526.71	1.94271	1.39381
	1528.61	2.13592	1.46148
	1530.51	1.79782	1.34083
	1532.41	1.73503	1.31721
	1534.31	1.83596	1.35498
	1536.21	2.05951	1.4351
	1538.11	2.09008	1.44571
	1540.01	2.47171	1.57217
	1541.91	3.06138	1.74968
	1543.81	3.45312	1.85826
	1545.71	3.98814	1.99703
	1547.61	4.55553	2.13437
	1549.51	5.22803	2.28649
	1551.41	5.8789	2.42465
	1553.31	6.6934	2.58716
	1555.21	7.96739	2.82266
	1557.11	9.17879	3.02965
	1559.01	10.8161	3.28878
	1560.91	12.4357	3.52643
	1562.81	14.2282	3.77203
	1564.71	15.6453	3.95541
	1566.61	17.1798	4.14485
	1568.51	18.3603	4.2849
	1570.41	19.479	4.4135
	1572.31	20.7819	4.55872
	1574.21	22.1322	4.70449
	1576.11	23.0774	4.80389
	1578.01	23.3527	4.83247
	1579.91	24.5754	4.95735
	1581.81	25.885	5.08773
	1583.72	27.4182	5.23624
	1585.62	28.6807	5.35544
	1587.52	29.8651	5.4649
	1589.42	30.5117	5.52374
	1591.32	31.0658	5.57367
	1593.22	31.3201	5.59643
	1595.12	31.9057	5.64852
	1597.02	32.3736	5.68978
	1598.92	32.9472	5.73997
	1600.82	33.0352	5.74763
	1602.72	33.0548	5.74933
	1604.62	32.9512	5.74032
	1606.52	33.0053	5.74502
	1608.42	32.8611	5.73246
	1610.32	32.6008	5.70971
	1612.22	31.964	5.65367
	1614.12	30.8883	5.55773
	1616.02	29.6445	5.44468
	1617.92	27.5151	5.24548
	1619.82	25.4024	5.04008
	1621.72	23.1545	4.81191
	1623.62	21.2275	4.60734
	1625.52	19.3744	4.40164
	1627.42	17.2054	4.14794
	1629.32	15.392	3.92326
	1631.22	13.8492	3.72144
	1633.12	12.1283	3.48258
	1635.02	10.3611	3.21886
	1636.92	8.80271	2.96694
	1638.82	7.78062	2.78938
	1640.73	6.91214	2.62909
	1642.63	6.25329	2.50066
	1644.53	5.48149	2.34126
	1646.43	4.73082	2.17504
	1648.33	4.14146	2.03506
	1650.23	3.57499	1.89076
	1652.13	3.23139	1.79761
	1654.03	2.76388	1.66249
	1655.93	2.39291	1.5469
	1657.83	1.95028	1.39653
	1659.73	1.41627	1.19007
	1661.63	1.09963	1.04863
	1663.53	1.18796	1.08994
	1665.43	1.21477	1.10217
	1667.33	1.03822	1.01893
	1669.23	0.838268	0.91557
	1671.13	0.443385	0.665872
	1673.03	0.376709	0.613766
	1674.93	0.313878	0.560248
	1676.83	0.406697	0.637728
	1678.73	0.195367	0.442004
	1680.63	0.034763	0.186448
	1682.53	0.191564	0.43768
	1684.43	0.132116	0.363477
	1686.33	0.181031	0.425478
	1688.23	0.331401	0.575674
	1690.13	0.597087	0.772714
	1692.03	0.452973	0.673033
	1693.93	0.316011	0.562148
	1695.83	0.552985	0.74363
	1697.73	0.986162	0.993057
	1699.64	1.43569	1.1982
	1701.54	1.69267	1.30103
	1703.44	2.25489	1.50163
	1705.34	2.58686	1.60837
	1707.24	2.76217	1.66198
	1709.14	2.94843	1.7171
	1711.04	3.55728	1.88608
	1712.94	4.46236	2.11243
	1714.84	5.3974	2.32323
	1716.74	5.94928	2.43911
	1718.64	6.80551	2.60874
	1720.54	8.12873	2.85109
	1722.44	9.87854	3.14301
	1724.34	11.9967	3.46363
	1726.24	14.3109	3.78298
	1728.14	17.0724	4.13188
	1730.04	20.1424	4.48803
	1731.94	23.7754	4.876
	1733.84	28.3244	5.32207
	1735.74	33.895	5.82194
	1737.64	40.1104	6.33328
	1739.54	46.6025	6.82661
	1741.44	52.7062	7.25991
	1743.34	58.353	7.63891
	1745.24	63.9433	7.99645
	1747.14	67.4608	8.21345
	1749.04	70.4429	8.39302
	1750.94	71.9659	8.48327
	1752.84	73.1115	8.55053
	1754.74	73.3305	8.56332
	1756.64	73.1531	8.55296
	1758.55	72.5733	8.519
	1760.45	71.2525	8.44112
	1762.35	69.5599	8.34026
	1764.25	67.0149	8.18626
	1766.15	63.9866	7.99916
	1768.05	61.1697	7.8211
	1769.95	57.0464	7.55291
	1771.85	53.0145	7.2811
	1773.75	48.812	6.98656
	1775.65	44.8002	6.69329
	1777.55	40.6515	6.37585
	1779.45	37.3293	6.10977
	1781.35	34.4075	5.86579
	1783.25	31.6509	5.62591
	1785.15	29.1826	5.40209
	1787.05	26.786	5.17552
	1788.95	24.3479	4.93436
	1790.85	22.2115	4.71291
	1792.75	20.0936	4.48259
	1794.65	18.2938	4.27713
	1796.55	16.6643	4.08219
	1798.45	15.4414	3.92956
	1800.35	14.2276	3.77195
	1802.25	12.9823	3.6031
	1804.15	11.6085	3.40712
	1806.05	10.327	3.21356
	1807.95	9.40208	3.06628
	1809.85	8.67813	2.94587
	1811.75	8.19313	2.86236
	1813.65	7.5136	2.7411
	1815.56	7.20876	2.68491
	1817.46	6.77352	2.6026
	1819.36	6.67748	2.58408
	1821.26	6.38321	2.5265
	1823.16	6.48046	2.54567
	1825.06	6.35771	2.52145
	1826.96	6.24583	2.49917
	1828.86	5.99329	2.44812
	1830.76	6.08129	2.46603
	1832.66	6.29574	2.50913
	1834.56	6.57299	2.56378
	1836.46	6.59513	2.5681
	1838.36	6.95392	2.63703
	1840.26	7.47271	2.73363
	1842.16	7.95786	2.82097
	1844.06	8.39356	2.89716
	1845.96	9.20972	3.03475
	1847.86	10.0084	3.1636
	1849.76	10.8107	3.28796
	1851.66	11.5955	3.40522
	1853.56	12.6889	3.56215
	1855.46	13.4259	3.66414
	1857.36	13.4445	3.66667
	1859.26	13.2507	3.64015
	1861.16	13.2638	3.64195
	1863.06	13.5145	3.67621
	1864.96	13.3435	3.65287
	1866.86	12.8657	3.58687
	1868.76	12.4555	3.52924
	1870.66	11.8421	3.44124
	1872.56	11.0448	3.32336
	1874.47	9.93356	3.15175
	1876.37	8.69728	2.94912
	1878.27	7.28126	2.69838
	1880.17	6.1114	2.47213
	1882.07	4.76234	2.18228
	1883.97	3.84516	1.96091
	1885.87	2.95196	1.71813
	1887.77	2.26993	1.50663
	1889.67	1.47865	1.216
	1891.57	0.987658	0.99381
	1893.47	0.408917	0.639466
	1895.37	0.0375728	0.193837
	1897.27	-0.310265	0.557014
	1899.17	-0.661422	0.813279
	1901.07	-0.736997	0.858485
	1902.97	-0.641987	0.801241
	1904.87	-0.270338	0.51994
	1906.77	0.105707	0.325127
	1908.67	0.991665	0.995824
	1910.57	1.85498	1.36198
	1912.47	3.0966	1.75972
	1914.37	4.30537	2.07494
	1916.27	5.24236	2.28962
	1918.17	5.84798	2.41826
	1920.07	5.99004	2.44746
	1921.97	6.37016	2.52392
	1923.87	6.52523	2.55445
	1925.77	6.41026	2.53185
	1927.67	6.64162	2.57713
	1929.57	7.08822	2.66237
	1931.48	8.17581	2.85934
	1933.38	9.53191	3.08738
	1935.28	12.0648	3.47344
	1937.18	14.8711	3.8563
	1939.08	18.7432	4.32934
	1940.98	21.8389	4.67321
	1942.88	24.2297	4.92236
	1944.78	24.7335	4.97328
	1946.68	24.5549	4.95529
	1948.58	22.3432	4.72686
	1950.48	20.8568	4.56692
	1952.38	18.457	4.29617
	1954.28	15.1184	3.88824
	1956.18	12.1956	3.49222
	1958.08	9.66897	3.1095
	1959.98	7.138	2.6717
	1961.88	5.28264	2.2984
	1963.78	3.70122	1.92386
	1965.68	2.57718	1.60536
	1967.58	1.54349	1.24237
	1969.48	1.0758	1.03721
	1971.38	0.803118	0.896168
	1973.28	0.673235	0.820509
	1975.18	0.547828	0.740154
	1977.08	0.406	0.637181
	1978.98	-0.0381827	0.195404
	1980.88	-0.429523	0.65538
	1982.78	-0.55842	0.747275
	1984.68	-0.306777	0.553874
	1986.58	-0.0205929	0.143502
	1988.48	-0.0732489	0.270645
	1990.39	-0.0745154	0.272975
	1992.29	0.026466	0.162684
	1994.19	-0.0326115	0.180587
	1996.09	0.0123074	0.110939
	1997.99	0.316898	0.562937
	1999.89	0.258798	0.508722
	2001.79	0.0912306	0.302044
	2003.69	0.252592	0.502586
	2005.59	0.333129	0.577174
	2007.49	0.474549	0.688875
	2009.39	0.526277	0.725449
	2011.29	0.617803	0.786005
	2013.19	0.76417	0.874168
	2015.09	1.00789	1.00394
	2016.99	1.22739	1.10788
	2018.89	1.56302	1.25021
	2020.79	1.67507	1.29424
	2022.69	1.71825	1.31082
	2024.59	1.66034	1.28854
	2026.49	1.67534	1.29435
	2028.39	1.86941	1.36726
	2030.29	2.01926	1.42101
	2032.19	2.01234	1.41857
	2034.09	2.11735	1.45511
	2035.99	2.08206	1.44293
	2037.89	1.84186	1.35715
	2039.79	1.51067	1.22909
	2041.69	1.27278	1.12818
	2043.59	1.15232	1.07346
	2045.49	1.01316	1.00656
	2047.39	1.10346	1.05045
	2049.3	1.04018	1.01989
	2051.2	0.91816	0.958207
	2053.1	0.629455	0.793382
	2055	0.676989	0.822793
	2056.9	0.828721	0.910341
	2058.8	0.820667	0.905907
	2060.7	0.642086	0.801302
	2062.6	0.682892	0.826373
	2064.5	0.512626	0.715979
	2066.4	0.558739	0.747488
	2068.3	0.522817	0.723061
	2070.2	0.705854	0.840151
	2072.1	0.81353	0.901959
	2074	1.04145	1.02051
	2075.9	1.27208	1.12787
	2077.8	1.29983	1.1401
	2079.7	1.17371	1.08338
	2081.6	1.14604	1.07053
	2083.5	1.00343	1.00171
	2085.4	0.774977	0.880328
	2087.3	0.768817	0.876822
	2089.2	0.95637	0.977942
	2091.1	0.891264	0.944068
	2093	0.682147	0.825922
	2094.9	0.582873	0.763461
	2096.8	0.579255	0.761088
	2098.7	0.424089	0.651221
	2100.6	0.287943	0.536603
	2102.5	0.252748	0.502741
	2104.4	0.135534	0.36815
	2106.31	0.0551757	0.234895
	2108.21	-0.0651785	0.255301
	2110.11	-0.076014	0.275706
	2112.01	-0.0530936	0.23042
	2113.91	0.149618	0.386805
	2115.81	0.547907	0.740207
	2117.71	0.762141	0.873007
	2119.61	0.77492	0.880295
	2121.51	0.867663	0.931484
	2123.41	0.886949	0.94178
	2125.31	0.765817	0.87511
	2127.21	0.972578	0.986194
	2129.11	1.10474	1.05107
	2131.01	0.861415	0.928124
	2132.91	0.771195	0.878177
	2134.81	0.541587	0.735926
	2136.71	0.379279	0.615856
	2138.61	0.242815	0.492763
	2140.51	0.00775198	0.0880453
	2142.41	-0.18562	0.430836
	2144.31	-0.175537	0.418971
	2146.21	0.160369	0.40046
	2148.11	0.245319	0.495297
	2150.01	0.138733	0.372469
	2151.91	0.107984	0.328609
	2153.81	-0.0118429	0.108825
	2155.71	0.0166721	0.12912
	2157.61	0.08278	0.287715
	2159.51	0.279673	0.528841
	2161.41	0.308616	0.555532
	2163.31	0.0677085	0.260209
	2165.22	0.0966899	0.31095
	2167.12	0.172923	0.41584
	2169.02	0.192698	0.438973
	2170.92	0.227221	0.476677
	2172.82	0.116535	0.341372
	2174.72	-0.127679	0.357322
	2176.62	-0.17996	0.424217
	2178.52	-0.182505	0.427206
	2180.42	0.0188355	0.137242
	2182.32	0.174613	0.417867
	2184.22	0.298321	0.546188
	2186.12	0.102399	0.319999
	2188.02	-0.0942159	0.306946
	2189.92	-0.156263	0.395301
	2191.82	0.00839094	0.0916021
	2193.72	0.061196	0.247378
	2195.62	-0.0456768	0.213721
	2197.52	-0.00197401	0.0444298
	2199.42	0.00460184	0.0678369
	2201.32	0.0211547	0.145446
	2203.22	-0.00974723	0.0987281
