Generated file C:/Users/didvk/Downloads/Dioptas_Win64_0.5.0/1_mask&dat&fxye_1position/6_ReMoB2_470psi_39p0GPa_S_P1_C1_D1w_043.fxye using DIOPTAS
# == pyFAI calibration ==
# Distance Sample to Detector: 0.21643023575112377 m
# PONI: 8.848e-02, 8.638e-02 m
# Rotations: 0.008179 -0.001145 -0.000000 rad
# 
# == Fit2d calibration ==
# Distance Sample-beamCenter: 216.438 mm
# Center: x=491.896, y=512.970 pix
# Tilt: 0.473 deg  TiltPlanRot: -172.032 deg
# 
# Detector Pilatus CdTe 1M	 PixelSize= 1.720e-04, 1.720e-04 m
#    Detector has a mask: True 
#    Detector has a dark current: False 
#    detector has a flat field: False 
# 
# Wavelength: 4.133e-11 m
# Mask applied: None
# Dark current applied: None
# Flat field applied: None
# Polarization factor: None
# Normalization factor: None
BANK	1	1006	1006 CONS	293.393	1.90033 0.4133 0.0 FXYE
	293.393	0.659486	0.812088
	295.294	0.264433	0.51423
	297.194	-0.207152	0.455139
	299.094	0.0412622	0.203131
	300.995	0.345368	0.58768
	302.895	0.912919	0.955468
	304.795	0.990557	0.995267
	306.696	0.851924	0.922997
	308.596	0.748111	0.864934
	310.496	0.662423	0.813894
	312.397	1.04883	1.02413
	314.297	1.48789	1.21979
	316.197	1.14154	1.06843
	318.098	1.11812	1.05741
	319.998	0.739555	0.859974
	321.898	0.877356	0.936673
	323.799	1.4308	1.19616
	325.699	1.42654	1.19438
	327.599	0.720248	0.848674
	329.5	0.854114	0.924183
	331.4	1.40986	1.18737
	333.3	2.14034	1.46299
	335.201	3.05142	1.74683
	337.101	3.92795	1.98191
	339.001	5.25866	2.29318
	340.902	7.20626	2.68445
	342.802	10.7389	3.27702
	344.702	15.468	3.93294
	346.603	21.6636	4.65442
	348.503	27.3538	5.23008
	350.403	30.1607	5.49187
	352.304	27.671	5.26033
	354.204	21.3043	4.61565
	356.104	13.2634	3.6419
	358.005	7.40167	2.7206
	359.905	3.80417	1.95043
	361.805	2.36465	1.53774
	363.706	1.92379	1.38701
	365.606	1.40928	1.18713
	367.506	1.27866	1.13078
	369.407	0.919578	0.958946
	371.307	1.21704	1.10319
	373.207	1.01956	1.00973
	375.108	0.6378	0.798624
	377.008	1.04121	1.0204
	378.908	0.984342	0.99214
	380.808	0.720234	0.848666
	382.709	0.464773	0.681742
	384.609	0.288209	0.536851
	386.509	0.508473	0.713073
	388.41	0.193206	0.439552
	390.31	-0.0255847	0.159952
	392.21	0.0535074	0.231317
	394.111	0.0692258	0.263108
	396.011	0.371525	0.609529
	397.911	0.623832	0.789831
	399.812	0.888796	0.94276
	401.712	0.882387	0.939355
	403.612	0.55694	0.746284
	405.513	0.433141	0.658134
	407.413	0.421447	0.649189
	409.313	0.0797811	0.282455
	411.214	0.18378	0.428695
	413.114	0.566959	0.752967
	415.014	0.715856	0.846083
	416.915	0.613506	0.783266
	418.815	0.39709	0.630151
	420.715	0.53696	0.732775
	422.616	0.666716	0.816527
	424.516	0.539527	0.734525
	426.416	0.723562	0.850624
	428.317	1.09375	1.04583
	430.217	1.46731	1.21133
	432.117	1.49689	1.22347
	434.018	1.93169	1.38985
	435.918	1.8977	1.37757
	437.818	1.78761	1.33702
	439.719	1.54826	1.24429
	441.619	0.786179	0.886667
	443.519	0.476151	0.690037
	445.42	0.419413	0.647621
	447.32	1.04722	1.02334
	449.22	1.2753	1.12929
	451.121	1.05582	1.02753
	453.021	0.204461	0.452174
	454.921	-0.372056	0.609964
	456.822	-0.185677	0.430902
	458.722	0.388192	0.623051
	460.622	0.560666	0.748776
	462.523	1.171	1.08213
	464.423	1.20812	1.09914
	466.323	1.07934	1.03891
	468.224	1.13304	1.06444
	470.124	1.72828	1.31464
	472.024	1.91679	1.38448
	473.924	1.79732	1.34064
	475.825	1.35222	1.16285
	477.725	1.36302	1.16748
	479.625	1.44599	1.20249
	481.526	0.838299	0.915586
	483.426	0.695863	0.834184
	485.326	0.386596	0.621768
	487.227	0.391797	0.625937
	489.127	0.322184	0.567612
	491.027	0.441391	0.664373
	492.928	1.0497	1.02455
	494.828	1.23981	1.11347
	496.728	0.942964	0.971063
	498.629	0.655607	0.809696
	500.529	0.245428	0.495407
	502.429	-0.202522	0.450024
	504.33	-0.341583	0.584451
	506.23	-0.154449	0.393
	508.13	0.111477	0.333881
	510.031	0.227052	0.476499
	511.931	0.0273382	0.165343
	513.831	0.177363	0.421145
	515.732	0.470551	0.685967
	517.632	0.371907	0.609842
	519.532	0.249546	0.499545
	521.433	0.172496	0.415326
	523.333	0.220663	0.469748
	525.233	0.380174	0.616583
	527.134	0.454396	0.674089
	529.034	0.513067	0.716287
	530.934	0.327143	0.571964
	532.835	0.171761	0.41444
	534.735	0.158113	0.397634
	536.635	0.241927	0.491861
	538.536	0.70557	0.839982
	540.436	0.620114	0.787473
	542.336	0.664944	0.815441
	544.237	0.432279	0.657479
	546.137	0.703429	0.838707
	548.037	0.427183	0.653592
	549.938	0.291952	0.540326
	551.838	0.449118	0.670163
	553.738	0.448733	0.669876
	555.639	0.280824	0.529929
	557.539	0.15924	0.399048
	559.439	0.0649942	0.25494
	561.34	0.155496	0.39433
	563.24	-0.147736	0.384364
	565.14	-0.250902	0.500901
	567.041	0.249387	0.499386
	568.941	1.18116	1.08681
	570.841	3.16568	1.77924
	572.741	5.33397	2.30954
	574.642	7.95323	2.82015
	576.542	9.32732	3.05407
	578.442	9.9736	3.1581
	580.343	9.13638	3.02265
	582.243	8.43052	2.90354
	584.143	6.92644	2.63181
	586.044	5.37021	2.31737
	587.944	4.25516	2.0628
	589.844	3.15997	1.77763
	591.745	2.80186	1.67387
	593.645	2.44984	1.5652
	595.545	2.22904	1.493
	597.446	2.18133	1.47693
	599.346	1.57696	1.25577
	601.246	1.04565	1.02257
	603.147	0.76857	0.876681
	605.047	0.812252	0.90125
	606.947	0.545866	0.738828
	608.848	0.728772	0.853681
	610.748	0.582205	0.763024
	612.648	0.409325	0.639785
	614.549	-0.0228614	0.1512
	616.449	0.0722523	0.268798
	618.349	0.358658	0.598881
	620.25	0.343696	0.586256
	622.15	0.61352	0.783275
	624.05	1.27372	1.12859
	625.951	1.90721	1.38102
	627.851	2.95574	1.71923
	629.751	3.84424	1.96067
	631.652	5.22134	2.28503
	633.552	7.08351	2.66149
	635.452	12.1241	3.48197
	637.353	18.9273	4.35055
	639.253	29.6116	5.44165
	641.153	35.9102	5.99251
	643.054	37.8729	6.1541
	644.954	31.187	5.58453
	646.854	22.8806	4.78336
	648.755	14.033	3.74607
	650.655	8.78186	2.96342
	652.555	5.77091	2.40227
	654.456	4.32312	2.07921
	656.356	3.62299	1.90341
	658.256	3.62585	1.90417
	660.157	4.24123	2.05942
	662.057	5.91259	2.43158
	663.957	8.12204	2.84992
	665.857	10.3391	3.21544
	667.758	11.8198	3.438
	669.658	12.1423	3.48458
	671.558	11.6821	3.41791
	673.459	10.6623	3.26532
	675.359	9.77954	3.12723
	677.259	9.14561	3.02417
	679.16	8.88867	2.98139
	681.06	9.89114	3.14502
	682.96	11.9775	3.46085
	684.861	15.6335	3.95392
	686.761	20.991	4.58159
	688.661	27.8541	5.2777
	690.562	39.0305	6.24744
	692.462	51.8539	7.20097
	694.362	70.8328	8.41622
	696.263	87.2575	9.34117
	698.163	105.235	10.2584
	700.063	113.594	10.6581
	701.964	115.707	10.7567
	703.864	101.732	10.0862
	705.764	83.563	9.14128
	707.665	61.0579	7.81396
	709.565	43.3222	6.58196
	711.465	30.0839	5.48488
	713.366	20.745	4.55467
	715.266	14.7426	3.83961
	717.166	10.5379	3.24621
	719.067	7.31469	2.70457
	720.967	5.25596	2.29259
	722.867	4.06302	2.01569
	724.768	3.21303	1.79249
	726.668	2.7283	1.65176
	728.568	2.11144	1.45308
	730.469	1.90922	1.38174
	732.369	1.31388	1.14625
	734.269	0.963284	0.981471
	736.17	0.804122	0.896729
	738.07	0.863401	0.929193
	739.97	0.803862	0.896583
	741.871	0.876865	0.93641
	743.771	1.04543	1.02246
	745.671	1.00924	1.00461
	747.572	0.450178	0.670953
	749.472	-0.0608628	0.246704
	751.372	-0.191225	0.437293
	753.273	0.158415	0.398013
	755.173	0.436843	0.660941
	757.073	0.593553	0.770424
	758.973	0.348882	0.590662
	760.874	0.240201	0.490103
	762.774	0.136378	0.369294
	764.674	-0.00807631	0.0898683
	766.575	-0.154016	0.392448
	768.475	-0.125292	0.353966
	770.375	-0.0673327	0.259485
	772.276	0.124257	0.352501
	774.176	0.453285	0.673264
	776.076	0.801366	0.895191
	777.977	1.05721	1.02821
	779.877	0.858365	0.92648
	781.777	0.682307	0.826019
	783.678	0.568305	0.75386
	785.578	0.673862	0.820891
	787.478	0.830782	0.911473
	789.379	0.481695	0.694043
	791.279	0.279147	0.528343
	793.179	0.0183955	0.13563
	795.08	0.404733	0.636186
	796.98	0.526718	0.725753
	798.88	0.486944	0.697813
	800.781	0.267883	0.517575
	802.681	0.271944	0.521482
	804.581	0.215463	0.46418
	806.482	0.150958	0.388533
	808.382	-0.0617454	0.248486
	810.282	0.0629881	0.250974
	812.183	0.392659	0.626625
	814.083	0.871	0.933274
	815.983	1.20835	1.09925
	817.884	1.14967	1.07223
	819.784	0.782508	0.884595
	821.684	0.567855	0.753561
	823.585	0.654563	0.809051
	825.485	0.739745	0.860085
	827.385	0.791322	0.889563
	829.286	0.387962	0.622866
	831.186	0.134533	0.366787
	833.086	0.00678361	0.0823626
	834.987	0.0133215	0.115419
	836.887	0.167306	0.40903
	838.787	0.393722	0.627473
	840.688	0.399839	0.632329
	842.588	0.298072	0.54596
	844.488	0.00963912	0.098179
	846.389	0.000939911	0.030658
	848.289	-0.0923765	0.303935
	850.189	-0.0374006	0.193392
	852.089	0.184393	0.42941
	853.99	0.296977	0.544956
	855.89	0.47321	0.687902
	857.79	0.243239	0.493193
	859.691	0.215601	0.464328
	861.591	0.385647	0.621005
	863.491	0.0980072	0.313061
	865.392	0.251439	0.501437
	867.292	0.453384	0.673338
	869.192	0.864602	0.92984
	871.093	0.609695	0.78083
	872.993	0.407642	0.638468
	874.893	0.226235	0.475641
	876.794	0.48644	0.697452
	878.694	0.366303	0.60523
	880.594	0.271715	0.521263
	882.495	0.193603	0.440003
	884.395	0.154476	0.393035
	886.295	-0.0331332	0.182025
	888.196	-0.250975	0.500974
	890.096	-0.329229	0.573785
	891.996	-0.20459	0.452317
	893.897	-0.156825	0.396011
	895.797	0.297336	0.545286
	897.697	0.795051	0.891656
	899.598	1.06541	1.03219
	901.498	1.29076	1.13612
	903.398	1.74358	1.32045
	905.299	2.49518	1.57961
	907.199	3.72603	1.93029
	909.099	4.71253	2.17084
	911	5.86082	2.42091
	912.9	7.59454	2.75582
	914.8	10.2956	3.20867
	916.701	13.5708	3.68386
	918.601	17.6113	4.19658
	920.501	22.7721	4.77201
	922.402	29.9551	5.47312
	924.302	39.4402	6.28015
	926.202	52.2486	7.22832
	928.103	69.7573	8.35208
	930.003	93.8981	9.6901
	931.903	129.579	11.3833
	933.804	178.514	13.3609
	935.704	248.733	15.7713
	937.604	332.483	18.2341
	939.505	440.044	20.9772
	941.405	558.423	23.631
	943.305	653.042	25.5547
	945.206	699.679	26.4514
	947.106	674.895	25.9787
	949.006	623.399	24.968
	950.906	544.146	23.3269
	952.807	472.577	21.7388
	954.707	410.783	20.2678
	956.607	362.441	19.0379
	958.508	320.817	17.9114
	960.408	287.023	16.9418
	962.308	260.093	16.1274
	964.209	237.846	15.4222
	966.109	213.482	14.611
	968.009	187.428	13.6905
	969.91	157.124	12.5349
	971.81	128.823	11.35
	973.71	101.508	10.0751
	975.611	79.5975	8.92174
	977.511	61.3509	7.83268
	979.411	47.4411	6.88775
	981.312	36.2826	6.0235
	983.212	27.8115	5.27366
	985.112	21.2325	4.60787
	987.013	16.1158	4.01445
	988.913	12.2645	3.50207
	990.813	8.9763	2.99605
	992.714	6.42451	2.53466
	994.614	4.85896	2.2043
	996.514	3.42075	1.84953
	998.415	2.13592	1.46148
	1000.31	1.15586	1.07511
	1002.22	0.527668	0.726407
	1004.12	0.0327633	0.181006
	1006.02	-0.525636	0.725008
	1007.92	-0.797957	0.893284
	1009.82	-0.748563	0.865196
	1011.72	-0.744767	0.862999
	1013.62	-0.292524	0.540855
	1015.52	-0.0270961	0.164609
	1017.42	0.276882	0.526195
	1019.32	0.601578	0.775615
	1021.22	1.04326	1.0214
	1023.12	1.41136	1.18801
	1025.02	1.77833	1.33354
	1026.92	2.05504	1.43354
	1028.82	2.65874	1.63056
	1030.72	3.49509	1.86952
	1032.62	4.6478	2.15588
	1034.52	5.79722	2.40774
	1036.42	6.85828	2.61883
	1038.32	8.51827	2.91861
	1040.22	10.9343	3.3067
	1042.12	13.9814	3.73917
	1044.02	17.6255	4.19828
	1045.92	20.9617	4.57839
	1047.82	23.953	4.89418
	1049.72	26.2805	5.12645
	1051.62	27.6979	5.26287
	1053.52	28.411	5.33019
	1055.42	28.9135	5.37713
	1057.32	29.1817	5.40201
	1059.23	28.8552	5.3717
	1061.13	27.7238	5.26534
	1063.03	26.187	5.11732
	1064.93	24.3989	4.93952
	1066.83	22.6229	4.75635
	1068.73	21.3228	4.61767
	1070.63	20.2821	4.50356
	1072.53	19.8434	4.4546
	1074.43	19.6298	4.43056
	1076.33	19.8517	4.45552
	1078.23	20.1765	4.49182
	1080.13	20.2383	4.4987
	1082.03	20.8666	4.568
	1083.93	21.628	4.65059
	1085.83	22.571	4.7509
	1087.73	23.8402	4.88265
	1089.63	24.9316	4.99315
	1091.53	26.1136	5.11015
	1093.43	27.2221	5.21748
	1095.33	27.9978	5.2913
	1097.23	28.9995	5.38512
	1099.13	29.7185	5.45146
	1101.03	30.4546	5.51857
	1102.93	30.8531	5.55456
	1104.83	30.9485	5.56314
	1106.73	30.3753	5.51137
	1108.63	29.9568	5.47328
	1110.53	29.3532	5.41786
	1112.43	28.9054	5.37637
	1114.33	28.6296	5.35066
	1116.23	27.8258	5.27502
	1118.14	26.4067	5.13874
	1120.04	25.0358	5.00358
	1121.94	23.6474	4.86286
	1123.84	21.8866	4.67831
	1125.74	19.3587	4.39985
	1127.64	16.5307	4.06579
	1129.54	13.8293	3.71878
	1131.44	11.4462	3.38322
	1133.34	9.62435	3.10231
	1135.24	7.71157	2.77697
	1137.14	6.19778	2.48953
	1139.04	5.10297	2.25898
	1140.94	4.42235	2.10294
	1142.84	4.15671	2.0388
	1144.74	3.972	1.99299
	1146.64	3.34226	1.82818
	1148.54	2.62373	1.61979
	1150.44	2.19376	1.48114
	1152.34	1.95311	1.39754
	1154.24	1.72326	1.31273
	1156.14	1.44945	1.20393
	1158.04	1.18356	1.08792
	1159.94	1.19434	1.09286
	1161.84	1.24097	1.11399
	1163.74	0.905521	0.951589
	1165.64	0.476638	0.69039
	1167.54	0.429189	0.655125
	1169.44	0.600934	0.775199
	1171.34	0.582577	0.763267
	1173.24	0.295376	0.543485
	1175.15	0.159936	0.39992
	1177.05	-0.304834	0.552117
	1178.95	-0.489486	0.699632
	1180.85	-0.963517	0.981589
	1182.75	-0.793271	0.890658
	1184.65	-0.889271	0.943012
	1186.55	-0.965451	0.982573
	1188.45	-1.13871	1.06711
	1190.35	-0.876773	0.936361
	1192.25	-0.491927	0.701375
	1194.15	-0.699915	0.836609
	1196.05	-0.956897	0.978211
	1197.95	-0.674811	0.821469
	1199.85	0.0645812	0.254128
	1201.75	0.531641	0.729137
	1203.65	0.960169	0.979882
	1205.55	1.94855	1.39591
	1207.45	2.71827	1.64872
	1209.35	3.92909	1.98219
	1211.25	4.7657	2.18305
	1213.15	6.12129	2.47412
	1215.05	7.01867	2.64928
	1216.95	7.95013	2.8196
	1218.85	9.34121	3.05634
	1220.75	10.8649	3.29619
	1222.65	12.885	3.58956
	1224.55	14.1231	3.75807
	1226.45	16.1107	4.01382
	1228.35	17.9802	4.2403
	1230.25	21.321	4.61747
	1232.15	24.5524	4.95504
	1234.06	28.6793	5.3553
	1235.96	33.1852	5.76066
	1237.86	39.3121	6.26993
	1239.76	47.2413	6.87323
	1241.66	56.214	7.4976
	1243.56	67.6236	8.22336
	1245.46	78.2926	8.84831
	1247.36	92.9259	9.63981
	1249.26	103.099	10.1538
	1251.16	113.841	10.6696
	1253.06	121.628	11.0285
	1254.96	126.624	11.2527
	1256.86	128.707	11.3449
	1258.76	125.876	11.2195
	1260.66	116.773	10.8062
	1262.56	106.738	10.3314
	1264.46	95.1057	9.75222
	1266.36	84.2519	9.17888
	1268.26	76.1729	8.72771
	1270.16	67.522	8.21717
	1272.06	61.8652	7.86544
	1273.96	56.487	7.51578
	1275.86	52.5109	7.24644
	1277.76	49.132	7.00943
	1279.66	46.5741	6.82452
	1281.56	44.7313	6.68815
	1283.46	43.2083	6.5733
	1285.36	42.429	6.51375
	1287.26	41.2399	6.42183
	1289.16	40.4477	6.35985
	1291.06	39.7429	6.3042
	1292.97	39.3722	6.27473
	1294.87	39.0704	6.25063
	1296.77	38.54	6.20806
	1298.67	38.3957	6.19643
	1300.57	38.3315	6.19124
	1302.47	38.0304	6.16688
	1304.37	37.4907	6.12297
	1306.27	37.2869	6.1063
	1308.17	37.2735	6.1052
	1310.07	38.0057	6.16487
	1311.97	38.9027	6.23721
	1313.87	39.8301	6.31111
	1315.77	41.6768	6.45575
	1317.67	43.8897	6.62493
	1319.57	47.3113	6.87832
	1321.47	51.4926	7.17583
	1323.37	56.7545	7.53356
	1325.27	65.2375	8.07697
	1327.17	76.0093	8.71833
	1329.07	89.7891	9.47571
	1330.97	104.492	10.2221
	1332.87	115.516	10.7478
	1334.77	121.74	11.0336
	1336.67	116.864	10.8104
	1338.57	103.729	10.1848
	1340.47	83.1096	9.11645
	1342.37	64.5647	8.03522
	1344.27	48.086	6.93441
	1346.17	36.6973	6.05783
	1348.07	28.2813	5.31802
	1349.98	21.5007	4.63688
	1351.88	15.808	3.97593
	1353.78	11.6046	3.40655
	1355.68	7.58002	2.75318
	1357.58	5.09804	2.25788
	1359.48	3.25196	1.80332
	1361.38	2.05642	1.43402
	1363.28	1.12222	1.05935
	1365.18	0.281714	0.530767
	1367.08	-0.31605	0.562183
	1368.98	-0.0372815	0.193084
	1370.88	0.173092	0.416044
	1372.78	0.789674	0.888636
	1374.68	0.849933	0.921918
	1376.58	1.257	1.12116
	1378.48	1.43761	1.199
	1380.38	2.10645	1.45136
	1382.28	2.43675	1.56101
	1384.18	2.94931	1.71736
	1386.08	2.70757	1.64547
	1387.98	3.30248	1.81727
	1389.88	3.34029	1.82765
	1391.78	3.96951	1.99236
	1393.68	4.3934	2.09604
	1395.58	5.11565	2.26178
	1397.48	5.74031	2.3959
	1399.38	6.16361	2.48266
	1401.28	6.14215	2.47834
	1403.18	6.3762	2.52511
	1405.08	6.7179	2.59189
	1406.98	7.30918	2.70355
	1408.89	7.70827	2.77638
	1410.79	8.09718	2.84555
	1412.69	8.2274	2.86834
	1414.59	8.27436	2.87652
	1416.49	7.76708	2.78695
	1418.39	7.34744	2.71062
	1420.29	6.18645	2.48726
	1422.19	4.94868	2.22456
	1424.09	3.64096	1.90813
	1425.99	2.70458	1.64456
	1427.89	1.87824	1.37049
	1429.79	1.29217	1.13674
	1431.69	0.843927	0.918655
	1433.59	0.933379	0.966116
	1435.49	0.567181	0.753114
	1437.39	0.0553713	0.235311
	1439.29	-0.54668	0.739378
	1441.19	-0.660518	0.812722
	1443.09	-0.394792	0.628324
	1444.99	-0.114007	0.337649
	1446.89	-0.0786764	0.280493
	1448.79	-0.382837	0.618738
	1450.69	-0.486149	0.697244
	1452.59	-0.488604	0.699002
	1454.49	-0.561751	0.749501
	1456.39	-0.487193	0.697992
	1458.29	-0.195378	0.442016
	1460.19	-0.0298324	0.172721
	1462.09	0.0593999	0.243721
	1463.99	0.0496329	0.222784
	1465.89	0.215822	0.464566
	1467.8	0.277169	0.526468
	1469.7	0.658123	0.811248
	1471.6	0.687597	0.829215
	1473.5	0.888029	0.942353
	1475.4	0.288551	0.537169
	1477.3	0.454878	0.674446
	1479.2	0.359379	0.599482
	1481.1	0.665316	0.815669
	1483	0.672151	0.819848
	1484.9	0.733804	0.856624
	1486.8	0.417389	0.646056
	1488.7	0.215076	0.463762
	1490.6	0.381631	0.617763
	1492.5	0.53735	0.733042
	1494.4	0.671975	0.819741
	1496.3	0.331215	0.575513
	1498.2	0.0106061	0.102986
	1500.1	0.246694	0.496683
	1502	0.538342	0.733718
	1503.9	0.502796	0.709081
	1505.8	0.252787	0.502779
	1507.7	0.151185	0.388825
	1509.6	0.182226	0.42688
	1511.5	0.204688	0.452424
	1513.4	0.530116	0.728091
	1515.3	0.549046	0.740976
	1517.2	0.572432	0.756593
	1519.1	0.26669	0.516421
	1521	0.0639598	0.252903
	1522.9	-0.0940619	0.306695
	1524.81	0.0190277	0.137941
	1526.71	0.20465	0.452382
	1528.61	0.177302	0.421072
	1530.51	-0.0398726	0.199681
	1532.41	0.21199	0.460423
	1534.31	0.561622	0.749414
	1536.21	0.592006	0.769419
	1538.11	0.213997	0.462598
	1540.01	0.135002	0.367426
	1541.91	0.490614	0.700439
	1543.81	0.77629	0.881073
	1545.71	1.18834	1.09011
	1547.61	1.75759	1.32574
	1549.51	1.86184	1.36449
	1551.41	1.86109	1.36422
	1553.31	1.55897	1.24859
	1555.21	1.55542	1.24717
	1557.11	1.83476	1.35453
	1559.01	2.40933	1.5522
	1560.91	3.2292	1.797
	1562.81	3.43067	1.85221
	1564.71	3.72534	1.93011
	1566.61	3.99374	1.99843
	1568.51	4.69281	2.16629
	1570.41	5.19698	2.27969
	1572.31	5.80865	2.41011
	1574.21	6.23006	2.49601
	1576.11	7.32792	2.70701
	1578.01	8.38338	2.89541
	1579.91	9.7233	3.11822
	1581.81	11.1099	3.33316
	1583.72	12.4804	3.53276
	1585.62	13.889	3.7268
	1587.52	15.8396	3.9799
	1589.42	18.0625	4.25
	1591.32	19.7229	4.44104
	1593.22	20.7938	4.56002
	1595.12	21.2838	4.61344
	1597.02	21.6092	4.64857
	1598.92	21.214	4.60587
	1600.82	20.8748	4.56889
	1602.72	20.8286	4.56384
	1604.62	21.1483	4.59873
	1606.52	21.9358	4.68356
	1608.42	22.9211	4.7876
	1610.32	24.14	4.91324
	1612.22	25.3793	5.03779
	1614.12	26.0974	5.10856
	1616.02	26.9588	5.19218
	1617.92	27.6172	5.25521
	1619.82	28.4652	5.33528
	1621.72	29.1089	5.39526
	1623.62	29.3445	5.41706
	1625.52	29.4523	5.427
	1627.42	29.0736	5.39199
	1629.32	28.9543	5.38092
	1631.22	28.1991	5.31029
	1633.12	27.08	5.20385
	1635.02	26.0792	5.10678
	1636.92	25.3242	5.03232
	1638.82	24.4344	4.94312
	1640.73	22.8556	4.78075
	1642.63	21.0516	4.5882
	1644.53	19.2679	4.38953
	1646.43	17.728	4.21046
	1648.33	15.9386	3.99232
	1650.23	13.8638	3.72341
	1652.13	11.9766	3.46072
	1654.03	10.469	3.23559
	1655.93	9.584	3.0958
	1657.83	8.50993	2.91718
	1659.73	7.42924	2.72566
	1661.63	6.05702	2.4611
	1663.53	5.21665	2.284
	1665.43	4.72165	2.17294
	1667.33	4.44352	2.10797
	1669.23	4.0746	2.01856
	1671.13	3.8276	1.95642
	1673.03	3.60385	1.89838
	1674.93	3.31004	1.81935
	1676.83	3.03483	1.74208
	1678.73	2.91346	1.70688
	1680.63	2.34668	1.53189
	1682.53	1.89273	1.37576
	1684.43	1.49861	1.22418
	1686.33	1.27185	1.12776
	1688.23	1.36273	1.16736
	1690.13	1.4428	1.20117
	1692.03	1.48855	1.22006
	1693.93	1.2496	1.11786
	1695.83	1.07051	1.03465
	1697.73	0.866357	0.930783
	1699.64	0.84027	0.916662
	1701.54	0.901649	0.949552
	1703.44	0.941665	0.970394
	1705.34	0.703498	0.838748
	1707.24	0.298719	0.546552
	1709.14	0.401833	0.633903
	1711.04	0.65092	0.806796
	1712.94	0.983076	0.991502
	1714.84	1.04581	1.02265
	1716.74	1.29786	1.13924
	1718.64	1.56799	1.25219
	1720.54	1.7775	1.33323
	1722.44	1.85089	1.36048
	1724.34	2.0403	1.42839
	1726.24	2.14175	1.46347
	1728.14	2.35493	1.53458
	1730.04	2.61724	1.61779
	1731.94	3.29493	1.81519
	1733.84	3.79838	1.94894
	1735.74	4.4158	2.10138
	1737.64	4.98288	2.23224
	1739.54	5.87787	2.42443
	1741.44	6.70664	2.58972
	1743.34	7.49855	2.73835
	1745.24	8.60153	2.93284
	1747.14	9.99201	3.16101
	1749.04	11.2924	3.36042
	1750.94	13.1302	3.62356
	1752.84	15.4483	3.93043
	1754.74	18.1609	4.26156
	1756.64	20.9491	4.57702
	1758.55	24.0398	4.90304
	1760.45	28.0825	5.29929
	1762.35	32.4467	5.6962
	1764.25	36.8304	6.06881
	1766.15	42.478	6.51751
	1768.05	48.5982	6.97124
	1769.95	55.301	7.43646
	1771.85	61.8634	7.86533
	1773.75	68.6706	8.28677
	1775.65	75.5624	8.69266
	1777.55	82.1131	9.06163
	1779.45	87.561	9.3574
	1781.35	91.437	9.56227
	1783.25	93.0203	9.6447
	1785.15	92.0436	9.59393
	1787.05	88.8015	9.42345
	1788.95	83.5287	9.1394
	1790.85	77.6699	8.81305
	1792.75	71.7446	8.47022
	1794.65	66.7863	8.17229
	1796.55	61.7858	7.8604
	1798.45	56.8977	7.54306
	1800.35	52.3018	7.232
	1802.25	48.5128	6.96511
	1804.15	44.4916	6.6702
	1806.05	40.8244	6.3894
	1807.95	37.1226	6.09284
	1809.85	33.8193	5.81544
	1811.75	30.4286	5.51621
	1813.65	27.3648	5.23113
	1815.56	24.0853	4.90767
	1817.46	20.9409	4.57612
	1819.36	18.415	4.29127
	1821.26	16.1146	4.0143
	1823.16	14.1822	3.76593
	1825.06	12.4711	3.53145
	1826.96	11.2005	3.34671
	1828.86	9.80211	3.13083
	1830.76	8.49768	2.91508
	1832.66	7.50615	2.73973
	1834.56	6.84429	2.61616
	1836.46	6.25484	2.50097
	1838.36	5.36497	2.31624
	1840.26	4.68416	2.16429
	1842.16	4.19257	2.04758
	1844.06	3.85508	1.96344
	1845.96	3.36712	1.83497
	1847.86	2.89846	1.70248
	1849.76	2.69577	1.64188
	1851.66	2.58932	1.60914
	1853.56	2.38229	1.54347
	1855.46	2.42661	1.55776
	1857.36	2.26151	1.50383
	1859.26	1.94215	1.39361
	1861.16	1.70375	1.30528
	1863.06	2.23631	1.49543
	1864.96	2.86169	1.69165
	1866.86	3.34022	1.82763
	1868.76	3.47098	1.86306
	1870.66	3.96968	1.9924
	1872.56	4.63078	2.15193
	1874.47	5.40369	2.32458
	1876.37	6.37963	2.52579
	1878.27	6.98064	2.64209
	1880.17	7.43181	2.72613
	1882.07	7.93398	2.81673
	1883.97	8.63223	2.93807
	1885.87	9.15449	3.02564
	1887.77	9.84988	3.13845
	1889.67	10.728	3.27537
	1891.57	11.3365	3.36697
	1893.47	11.6669	3.41569
	1895.37	11.9894	3.46257
	1897.27	12.4356	3.52642
	1899.17	12.1925	3.49178
	1901.07	11.5106	3.39273
	1902.97	10.3149	3.21168
	1904.87	9.21197	3.03512
	1906.77	7.61146	2.75889
	1908.67	6.24396	2.49879
	1910.57	4.74873	2.17916
	1912.47	3.47013	1.86283
	1914.37	2.06695	1.43769
	1916.27	1.1848	1.08849
	1918.17	0.323695	0.568942
	1920.07	-0.279404	0.528587
	1921.97	-0.582611	0.76329
	1923.87	-0.582262	0.763061
	1925.77	-0.702112	0.837922
	1927.67	-0.742439	0.861649
	1929.57	-0.700816	0.837148
	1931.48	-0.553853	0.744213
	1933.38	-0.261748	0.511613
	1935.28	-0.0847384	0.291099
	1937.18	0.288872	0.537468
	1939.08	0.61314	0.783033
	1940.98	1.13839	1.06695
	1942.88	1.7673	1.3294
	1944.78	2.33484	1.52802
	1946.68	3.10063	1.76086
	1948.58	3.53974	1.88142
	1950.48	4.4759	2.11563
	1952.38	5.26944	2.29553
	1954.28	6.61389	2.57175
	1956.18	7.40824	2.72181
	1958.08	9.65022	3.10648
	1959.98	11.5674	3.40109
	1961.88	13.9789	3.73883
	1963.78	15.9594	3.99492
	1965.68	17.3997	4.1713
	1967.58	18.7118	4.32572
	1969.48	19.6102	4.42834
	1971.38	19.8056	4.45035
	1973.28	19.551	4.42165
	1975.18	18.1778	4.26355
	1977.08	16.8079	4.09975
	1978.98	14.5407	3.81323
	1980.88	12.3891	3.51982
	1982.78	10.1067	3.17911
	1984.68	8.59252	2.9313
	1986.58	7.02154	2.64982
	1988.48	5.46542	2.33782
	1990.39	3.96839	1.99208
	1992.29	2.96482	1.72186
	1994.19	2.91151	1.70632
	1996.09	2.43931	1.56183
	1997.99	1.9442	1.39435
	1999.89	1.36388	1.16785
	2001.79	1.05004	1.02471
	2003.69	1.00523	1.00261
	2005.59	0.831884	0.912077
	2007.49	0.640307	0.800192
	2009.39	0.16783	0.409671
	2011.29	0.115779	0.340263
	2013.19	0.0865689	0.294226
	2015.09	-0.0171131	0.130817
	2016.99	0.0406372	0.201587
	2018.89	0.0486458	0.220558
	2020.79	-0.0522662	0.228618
	2022.69	0.0274897	0.1658
	2024.59	0.0964276	0.310528
	2026.49	0.195614	0.442282
	2028.39	0.298426	0.546284
	2030.29	0.453755	0.673614
	2032.19	0.386911	0.622022
	2034.09	0.365234	0.604346
	2035.99	0.195059	0.441655
	2037.89	0.420765	0.648664
	2039.79	0.379691	0.616191
	2041.69	0.166579	0.40814
	2043.59	-0.099899	0.316068
	2045.49	-0.000688686	0.0262428
	2047.39	0.164993	0.406193
	2049.3	0.158367	0.397953
	2051.2	0.0405591	0.201393
	2053.1	0.00710745	0.0843057
	2055	0.185515	0.430714
	2056.9	0.218273	0.467197
	2058.8	0.226556	0.475979
	2060.7	0.0427872	0.206851
	2062.6	-0.00827404	0.0909618
	2064.5	-0.132609	0.364155
	2066.4	-0.0532968	0.230861
	2068.3	0.026126	0.161635
	2070.2	-0.0480025	0.219095
	2072.1	0.0315334	0.177576
	2074	0.0419949	0.204927
	2075.9	0.122176	0.349537
	2077.8	0.149453	0.386591
	2079.7	0.14199	0.376815
	2081.6	0.150228	0.387593
	2083.5	0.28731	0.536013
	2085.4	0.36528	0.604384
	2087.3	0.487446	0.698173
	2089.2	0.343172	0.585809
	2091.1	0.354691	0.595559
	2093	0.314645	0.560933
	2094.9	0.738308	0.859249
	2096.8	0.958136	0.978844
	2098.7	1.0581	1.02864
	2100.6	0.89708	0.947143
	2102.5	0.696667	0.834666
	2104.4	0.828859	0.910417
	2106.31	0.825546	0.908596
	2108.21	0.751017	0.866612
	2110.11	0.546829	0.739479
	2112.01	0.40798	0.638733
	2113.91	0.31382	0.560197
	2115.81	0.414089	0.643497
	2117.71	0.589209	0.7676
	2119.61	0.749604	0.865797
	2121.51	0.703981	0.839036
	2123.41	0.523715	0.723682
	2125.31	0.48417	0.695823
	2127.21	0.386693	0.621846
	2129.11	0.321527	0.567034
	2131.01	0.138159	0.371697
	2132.91	0.0391723	0.19792
	2134.81	0.0622611	0.249522
	2136.71	0.152458	0.390459
	2138.61	0.167203	0.408905
	2140.51	0.105063	0.324135
	2142.41	-0.0997316	0.315803
	2144.31	-0.0266896	0.163369
	2146.21	-0.0098846	0.0994213
	2148.11	0.019236	0.138694
	2150.01	0.000999221	0.0316105
	2151.91	0.115388	0.339688
	2153.81	0.165865	0.407266
	2155.71	0.212553	0.461035
	2157.61	0.124681	0.353102
	2159.51	0.00828763	0.0910364
	2161.41	-0.0188388	0.137255
	2163.31	0.119575	0.345797
	2165.22	0.239093	0.488972
	2167.12	0.361569	0.601306
	2169.02	0.118566	0.344334
	2170.92	0.0557566	0.236128
	2172.82	-0.0925168	0.304166
	2174.72	0.0315887	0.177732
	2176.62	0.277525	0.526807
	2178.52	0.382658	0.618594
	2180.42	0.0668544	0.258562
	2182.32	-0.0904483	0.300746
	2184.22	-0.0509738	0.225774
	2186.12	0.137377	0.370644
	2188.02	-0.0751061	0.274055
	2189.92	-0.159712	0.39964
	2191.82	-0.0931754	0.305247
	2193.72	0.159498	0.399372
	2195.62	0.153705	0.392052
	2197.52	0.0468477	0.216443
	2199.42	-0.161288	0.401607
	2201.32	-0.0224316	0.149772
	2203.22	0.0400988	0.200247
