Generated file C:/Users/didvk/Downloads/Dioptas_Win64_0.5.0/1_mask&dat&fxye_1position/7_ReMoB2_490psi_45p0GPa_S_P1_C1_D1w_049.fxye using DIOPTAS
# == pyFAI calibration ==
# Distance Sample to Detector: 0.21643023575112377 m
# PONI: 8.848e-02, 8.638e-02 m
# Rotations: 0.008179 -0.001145 -0.000000 rad
# 
# == Fit2d calibration ==
# Distance Sample-beamCenter: 216.438 mm
# Center: x=491.896, y=512.970 pix
# Tilt: 0.473 deg  TiltPlanRot: -172.032 deg
# 
# Detector Pilatus CdTe 1M	 PixelSize= 1.720e-04, 1.720e-04 m
#    Detector has a mask: True 
#    Detector has a dark current: False 
#    detector has a flat field: False 
# 
# Wavelength: 4.133e-11 m
# Mask applied: None
# Dark current applied: None
# Flat field applied: None
# Polarization factor: None
# Normalization factor: None
BANK	1	1006	1006 CONS	293.393	1.90033 0.4133 0.0 FXYE
	293.393	0.576175	0.759062
	295.294	0.075878	0.27546
	297.194	0.478628	0.691829
	299.094	0.49033	0.700235
	300.995	0.786068	0.886605
	302.895	0.163439	0.404276
	304.795	0.0125508	0.11203
	306.696	-0.0779465	0.279189
	308.596	0.765226	0.874772
	310.496	1.32951	1.15304
	312.397	1.26647	1.12538
	314.297	0.98096	0.990434
	316.197	0.308112	0.555079
	318.098	0.421466	0.649204
	319.998	0.84204	0.917627
	321.898	1.12844	1.06228
	323.799	1.31288	1.14581
	325.699	0.84097	0.917044
	327.599	0.765009	0.874648
	329.5	0.185554	0.430759
	331.4	0.964775	0.982229
	333.3	1.48157	1.2172
	335.201	2.12571	1.45798
	337.101	2.60072	1.61268
	339.001	3.74198	1.93442
	340.902	5.20106	2.28058
	342.802	7.67829	2.77097
	344.702	12.1607	3.48722
	346.603	19.5542	4.42201
	348.503	27.9608	5.2878
	350.403	33.26	5.76715
	352.304	32.8749	5.73367
	354.204	27.8273	5.27516
	356.104	19.3555	4.39949
	358.005	12.0889	3.47691
	359.905	7.1224	2.66878
	361.805	4.2162	2.05334
	363.706	2.91658	1.7078
	365.606	2.33129	1.52686
	367.506	1.93997	1.39283
	369.407	1.8072	1.34432
	371.307	1.14	1.06771
	373.207	1.2849	1.13353
	375.108	1.22927	1.10872
	377.008	1.62264	1.27383
	378.908	1.34867	1.16132
	380.808	0.760962	0.872331
	382.709	0.436226	0.660474
	384.609	-0.137428	0.370713
	386.509	0.266338	0.516079
	388.41	0.250586	0.500586
	390.31	0.386879	0.621996
	392.21	0.136563	0.369544
	394.111	0.258045	0.507981
	396.011	0.483397	0.695267
	397.911	0.673827	0.82087
	399.812	0.659647	0.812187
	401.712	0.769201	0.877041
	403.612	0.77896	0.882587
	405.513	0.51901	0.720424
	407.413	0.219948	0.468986
	409.313	0.122014	0.349305
	411.214	0.383119	0.618966
	413.114	0.771698	0.878464
	415.014	0.898649	0.947971
	416.915	0.832327	0.91232
	418.815	0.84307	0.918188
	420.715	0.964409	0.982043
	422.616	1.09056	1.0443
	424.516	1.05702	1.02811
	426.416	0.849353	0.921604
	428.317	0.839435	0.916207
	430.217	0.944973	0.972097
	432.117	1.22565	1.10709
	434.018	0.880217	0.938199
	435.918	0.542046	0.736238
	437.818	0.285465	0.53429
	439.719	0.0446653	0.211342
	441.619	0.218003	0.466908
	443.519	0.186041	0.431325
	445.42	0.626704	0.791647
	447.32	0.975784	0.987818
	449.22	1.0862	1.04221
	451.121	1.2557	1.12058
	453.021	0.922523	0.96048
	454.921	0.839784	0.916397
	456.822	1.07558	1.0371
	458.722	1.16575	1.0797
	460.622	1.08144	1.03992
	462.523	1.13442	1.06509
	464.423	0.633578	0.795976
	466.323	0.648027	0.805002
	468.224	0.460485	0.67859
	470.124	0.131985	0.363298
	472.024	0.202802	0.450336
	473.924	0.659599	0.812157
	475.825	0.522345	0.722734
	477.725	0.0515761	0.227104
	479.625	-0.304556	0.551866
	481.526	0.385507	0.620892
	483.426	0.419152	0.64742
	485.326	0.356001	0.596658
	487.227	0.160616	0.400769
	489.127	0.347663	0.58963
	491.027	0.52846	0.726953
	492.928	0.318314	0.564194
	494.828	0.529857	0.727913
	496.728	0.756822	0.869955
	498.629	0.758066	0.87067
	500.529	0.456025	0.675296
	502.429	0.0732362	0.270622
	504.33	-0.113317	0.336625
	506.23	-0.0532926	0.230852
	508.13	0.312171	0.558722
	510.031	0.802284	0.895703
	511.931	1.32801	1.15239
	513.831	1.3553	1.16417
	515.732	1.47292	1.21364
	517.632	1.22178	1.10534
	519.532	0.701896	0.837792
	521.433	0.138792	0.372547
	523.333	0.400394	0.632767
	525.233	0.811102	0.900612
	527.134	0.805286	0.897377
	529.034	0.538214	0.733631
	530.934	0.264977	0.514759
	532.835	-0.0466823	0.216061
	534.735	0.439952	0.663289
	536.635	1.06943	1.03413
	538.536	1.40028	1.18334
	540.436	1.0181	1.00901
	542.336	0.385657	0.621013
	544.237	0.169416	0.411601
	546.137	0.00629167	0.0793201
	548.037	-0.220672	0.469757
	549.938	-0.0308303	0.175585
	551.838	0.205271	0.453069
	553.738	0.27945	0.52863
	555.639	0.481534	0.693927
	557.539	0.850993	0.922493
	559.439	0.649901	0.806164
	561.34	0.371674	0.609651
	563.24	-0.0650954	0.255138
	565.14	0.414648	0.643932
	567.041	1.19002	1.09088
	568.941	1.55045	1.24517
	570.841	1.72856	1.31475
	572.741	2.7055	1.64484
	574.642	4.17928	2.04433
	576.542	6.31185	2.51234
	578.442	7.25676	2.69384
	580.343	7.68737	2.77261
	582.243	6.99146	2.64414
	584.143	6.06866	2.46346
	586.044	4.50719	2.12302
	587.944	3.33566	1.82638
	589.844	2.08511	1.44399
	591.745	1.35884	1.16569
	593.645	1.47667	1.21518
	595.545	1.16174	1.07784
	597.446	1.25775	1.12149
	599.346	1.18486	1.08851
	601.246	1.38546	1.17706
	603.147	1.88084	1.37144
	605.047	1.66548	1.29053
	606.947	1.30569	1.14267
	608.848	0.387782	0.622721
	610.748	0.0612053	0.247397
	612.648	0.328766	0.573381
	614.549	0.321012	0.566579
	616.449	0.195457	0.442106
	618.349	-0.0989668	0.31459
	620.25	0.0185449	0.13618
	622.15	0.196788	0.443608
	624.05	0.643396	0.80212
	625.951	1.67657	1.29482
	627.851	2.28986	1.51323
	629.751	3.05189	1.74696
	631.652	3.55181	1.88462
	633.552	4.40905	2.09977
	635.452	6.79713	2.60713
	637.353	10.7948	3.28554
	639.253	17.4978	4.18304
	641.153	25.0046	5.00046
	643.054	29.8189	5.46067
	644.954	29.9891	5.47623
	646.854	24.6588	4.96576
	648.755	17.9056	4.2315
	650.655	10.8165	3.28885
	652.555	6.87201	2.62145
	654.456	4.23259	2.05733
	656.356	3.39422	1.84234
	658.256	2.92867	1.71134
	660.157	3.06477	1.75065
	662.057	3.83028	1.95711
	663.957	4.95706	2.22645
	665.857	6.416	2.53298
	667.758	8.29533	2.88016
	669.658	11.2709	3.35722
	671.558	14.0046	3.74228
	673.459	15.1328	3.89009
	675.359	14.2225	3.77128
	677.259	12.6301	3.55388
	679.16	10.8845	3.29917
	681.06	9.87097	3.14181
	682.96	9.69571	3.11379
	684.861	11.0206	3.31973
	686.761	13.7346	3.70602
	688.661	17.4736	4.18015
	690.562	24.2462	4.92404
	692.462	33.3717	5.77682
	694.362	49.871	7.06194
	696.263	67.3612	8.20738
	698.163	88.9835	9.4331
	700.063	105.722	10.2821
	701.964	115.788	10.7605
	703.864	107.107	10.3493
	705.764	94.8119	9.73714
	707.665	75.0816	8.66497
	709.565	57.619	7.59072
	711.465	42.4195	6.51303
	713.366	30.5665	5.5287
	715.266	22.1627	4.70773
	717.166	16.1267	4.0158
	719.067	11.0709	3.3273
	720.967	7.99479	2.82751
	722.867	5.33643	2.31007
	724.768	4.27239	2.06697
	726.668	3.35082	1.83052
	728.568	3.14774	1.77419
	730.469	2.56965	1.60301
	732.369	2.1164	1.45479
	734.269	1.61731	1.27174
	736.17	1.18574	1.08892
	738.07	0.93148	0.965132
	739.97	0.978	0.988939
	741.871	1.36955	1.17028
	743.771	1.62743	1.27571
	745.671	0.867196	0.931234
	747.572	0.357687	0.598069
	749.472	0.243894	0.493856
	751.372	0.223687	0.472956
	753.273	-0.0483631	0.219916
	755.173	-0.273009	0.522503
	757.073	-0.0959731	0.309795
	758.973	0.174887	0.418195
	760.874	0.341475	0.584359
	762.774	0.604181	0.777291
	764.674	0.656926	0.81051
	766.575	0.39389	0.627606
	768.475	0.230975	0.480599
	770.375	0.195914	0.442622
	772.276	0.31918	0.56496
	774.176	0.586131	0.765592
	776.076	0.712463	0.844075
	777.977	0.641732	0.801082
	779.877	0.766119	0.875282
	781.777	0.676579	0.822545
	783.678	0.33003	0.574482
	785.578	0.109407	0.330767
	787.478	0.206337	0.454244
	789.379	0.268433	0.518105
	791.279	-0.0511551	0.226175
	793.179	-0.1174	0.342637
	795.08	0.289196	0.537769
	796.98	0.579076	0.760971
	798.88	0.345467	0.587765
	800.781	0.290523	0.539002
	802.681	0.364486	0.603726
	804.581	0.282986	0.531964
	806.482	0.400871	0.633144
	808.382	0.274885	0.524295
	810.282	0.453039	0.673082
	812.183	0.437103	0.661138
	814.083	0.664052	0.814894
	815.983	0.252832	0.502824
	817.884	0.0485229	0.220279
	819.784	0.175541	0.418976
	821.684	0.105639	0.325022
	823.585	0.148917	0.385897
	825.485	0.0367244	0.191636
	827.385	0.0659531	0.256813
	829.286	0.258367	0.508298
	831.186	0.489146	0.69939
	833.086	0.530713	0.7285
	834.987	0.674085	0.821027
	836.887	0.571974	0.756289
	838.787	0.344819	0.587213
	840.688	0.797146	0.89283
	842.588	0.615458	0.784511
	844.488	0.597306	0.772856
	846.389	0.0264713	0.1627
	848.289	-0.131458	0.362572
	850.189	-0.150993	0.388578
	852.089	0.0363171	0.19057
	853.99	0.118689	0.344513
	855.89	-0.0943449	0.307156
	857.79	-0.0196861	0.140307
	859.691	-0.0159685	0.126366
	861.591	0.39046	0.624868
	863.491	0.707733	0.841269
	865.392	1.1046	1.051
	867.292	0.994317	0.997154
	869.192	0.981597	0.990756
	871.093	0.376218	0.613366
	872.993	0.349442	0.591136
	874.893	0.343086	0.585735
	876.794	0.681688	0.825644
	878.694	0.166104	0.407559
	880.594	-0.252692	0.502685
	882.495	-0.252104	0.502099
	884.395	0.0955552	0.30912
	886.295	0.0736319	0.271352
	888.196	0.246415	0.496402
	890.096	0.558939	0.747622
	891.996	0.768518	0.876651
	893.897	0.955528	0.977511
	895.797	1.03035	1.01506
	897.697	0.887128	0.941875
	899.598	0.837159	0.914964
	901.498	0.943534	0.971357
	903.398	1.58782	1.26009
	905.299	2.00933	1.41751
	907.199	2.82199	1.67988
	909.099	4.17649	2.04365
	911	5.739	2.39562
	912.9	7.35716	2.71241
	914.8	9.58512	3.09598
	916.701	12.3104	3.50862
	918.601	15.4022	3.92456
	920.501	19.0092	4.35996
	922.402	23.6092	4.85893
	924.302	29.0492	5.38973
	926.202	35.8235	5.98527
	928.103	43.9161	6.62692
	930.003	54.1293	7.35726
	931.903	68.9519	8.30373
	933.804	88.801	9.42343
	935.704	116.307	10.7846
	937.604	154.482	12.4291
	939.505	204.796	14.3107
	941.405	274.13	16.5569
	943.305	351.61	18.7513
	945.206	433.553	20.8219
	947.106	495.397	22.2575
	949.006	535.521	23.1413
	950.906	544.913	23.3434
	952.807	530.715	23.0373
	954.707	502.935	22.4262
	956.607	466.039	21.5879
	958.508	419.17	20.4736
	960.408	366.695	19.1493
	962.308	320.564	17.9043
	964.209	281.449	16.7764
	966.109	249.971	15.8105
	968.009	223.338	14.9445
	969.91	197.377	14.0491
	971.81	172.932	13.1504
	973.71	147.426	12.1419
	975.611	123.745	11.1241
	977.511	100.506	10.0253
	979.411	79.7602	8.93085
	981.312	62.2826	7.89193
	983.212	49.0081	7.00058
	985.112	38.3086	6.18939
	987.013	30.1093	5.48719
	988.913	23.4975	4.84742
	990.813	18.4232	4.29222
	992.714	14.1351	3.75967
	994.614	10.7582	3.27997
	996.514	7.9796	2.82482
	998.415	5.88426	2.42575
	1000.31	4.5743	2.13876
	1002.22	3.4304	1.85213
	1004.12	2.49887	1.58078
	1006.02	1.578	1.25618
	1007.92	0.931855	0.965326
	1009.82	0.413175	0.642787
	1011.72	-0.239314	0.489198
	1013.62	-0.771948	0.878605
	1015.52	-0.935087	0.966999
	1017.42	-0.952189	0.975802
	1019.32	-0.428638	0.654705
	1021.22	-0.255361	0.505333
	1023.12	-0.186488	0.431842
	1025.02	-0.0711543	0.266748
	1026.92	-0.210044	0.458306
	1028.82	-0.0475709	0.218108
	1030.72	0.268872	0.518529
	1032.62	1.05612	1.02767
	1034.52	1.64986	1.28447
	1036.42	2.51882	1.58708
	1038.32	3.20029	1.78894
	1040.22	3.96133	1.99031
	1042.12	5.05835	2.24908
	1044.02	7.09608	2.66385
	1045.92	10.0114	3.16408
	1047.82	12.927	3.59541
	1049.72	15.4939	3.93623
	1051.62	17.6609	4.20249
	1053.52	20.2205	4.49672
	1055.42	22.9043	4.78584
	1057.32	25.0144	5.00144
	1059.23	26.298	5.12815
	1061.13	27.6198	5.25545
	1063.03	28.8656	5.37267
	1064.93	29.2793	5.41103
	1066.83	28.1518	5.30582
	1068.73	26.5515	5.15281
	1070.63	24.6966	4.96957
	1072.53	22.8302	4.7781
	1074.43	21.1193	4.59558
	1076.33	19.4487	4.41007
	1078.23	18.952	4.35339
	1080.13	19.1039	4.3708
	1082.03	19.9656	4.46829
	1083.93	20.4753	4.52497
	1085.83	21.4423	4.63059
	1087.73	22.5725	4.75105
	1089.63	23.5316	4.85094
	1091.53	24.8339	4.98337
	1093.43	25.8543	5.08471
	1095.33	27.2024	5.21559
	1097.23	29.2035	5.40403
	1099.13	30.4376	5.51702
	1101.03	30.9757	5.56558
	1102.93	31.1526	5.58145
	1104.83	31.2799	5.59284
	1106.73	31.7877	5.63806
	1108.63	32.2822	5.68174
	1110.53	31.9775	5.65487
	1112.43	31.814	5.64039
	1114.33	31.7913	5.63838
	1116.23	31.6618	5.62688
	1118.14	30.7347	5.54388
	1120.04	30.0044	5.47762
	1121.94	29.9892	5.47624
	1123.84	30.2701	5.50183
	1125.74	30.4003	5.51364
	1127.64	30.1756	5.49323
	1129.54	30.3914	5.51284
	1131.44	29.713	5.45096
	1133.34	26.651	5.16246
	1135.24	21.3256	4.61796
	1137.14	17.3233	4.16213
	1139.04	14.594	3.82021
	1140.94	12.4626	3.53025
	1142.84	10.3746	3.22096
	1144.74	8.89208	2.98196
	1146.64	7.15598	2.67507
	1148.54	5.33777	2.31036
	1150.44	4.12037	2.02987
	1152.34	3.52071	1.87635
	1154.24	2.94371	1.71572
	1156.14	2.35509	1.53463
	1158.04	1.92526	1.38754
	1159.94	1.74359	1.32045
	1161.84	1.75384	1.32433
	1163.74	1.58606	1.25939
	1165.64	1.60629	1.26739
	1167.54	1.20597	1.09816
	1169.44	0.705932	0.840198
	1171.34	-0.124923	0.353444
	1173.24	-0.454887	0.674453
	1175.15	-0.387715	0.622667
	1177.05	-0.183448	0.428308
	1178.95	-0.637371	0.798355
	1180.85	-0.747427	0.864538
	1182.75	-0.515107	0.717709
	1184.65	-0.349441	0.591135
	1186.55	-0.652569	0.807818
	1188.45	-1.07187	1.03531
	1190.35	-0.995106	0.99755
	1192.25	-0.547937	0.740228
	1194.15	-0.139124	0.372994
	1196.05	0.181089	0.425545
	1197.95	-0.0327626	0.181004
	1199.85	0.414276	0.643643
	1201.75	0.995425	0.99771
	1203.65	2.05967	1.43515
	1205.55	2.81528	1.67788
	1207.45	3.71576	1.92763
	1209.35	4.26893	2.06614
	1211.25	5.09678	2.25761
	1213.15	6.28699	2.50739
	1215.05	7.70958	2.77661
	1216.95	9.10355	3.01721
	1218.85	10.032	3.16733
	1220.75	11.4032	3.37687
	1222.65	12.3703	3.51714
	1224.55	13.2484	3.63984
	1226.45	14.3845	3.79269
	1228.35	15.9285	3.99105
	1230.25	18.0948	4.25379
	1232.15	19.646	4.43238
	1234.06	21.7443	4.66308
	1235.96	24.0068	4.89967
	1237.86	26.225	5.12104
	1239.76	29.3479	5.41737
	1241.66	32.8275	5.72953
	1243.56	37.7996	6.14813
	1245.46	43.319	6.58171
	1247.36	51.2732	7.16053
	1249.26	59.6456	7.72306
	1251.16	69.865	8.35853
	1253.06	82.4307	9.07913
	1254.96	94.7864	9.73583
	1256.86	111.432	10.5561
	1258.76	123.037	11.0922
	1260.66	140.293	11.8446
	1262.56	147.973	12.1644
	1264.46	153.363	12.384
	1266.36	149.713	12.2357
	1268.26	141.569	11.8983
	1270.16	125.802	11.2161
	1272.06	112.839	10.6225
	1273.96	94.5431	9.72333
	1275.86	80.564	8.97574
	1277.76	69.065	8.31054
	1279.66	59.9811	7.74474
	1281.56	53.9951	7.34814
	1283.46	49.0329	7.00235
	1285.36	45.7278	6.76223
	1287.26	42.9994	6.55739
	1289.16	41.6946	6.45713
	1291.06	40.0356	6.32737
	1292.97	38.9615	6.24192
	1294.87	38.3162	6.19001
	1296.77	37.36	6.11228
	1298.67	36.6583	6.05461
	1300.57	36.0071	6.00059
	1302.47	35.4122	5.95082
	1304.37	35.101	5.92461
	1306.27	34.6594	5.88723
	1308.17	34.3477	5.86069
	1310.07	33.5583	5.79295
	1311.97	33.4254	5.78147
	1313.87	33.036	5.74769
	1315.77	33.5428	5.79162
	1317.67	33.4761	5.78585
	1319.57	33.1604	5.75851
	1321.47	32.7276	5.7208
	1323.37	32.7593	5.72357
	1325.27	32.8459	5.73114
	1327.17	33.7451	5.80906
	1329.07	35.2575	5.9378
	1330.97	37.815	6.14939
	1332.87	40.6228	6.3736
	1334.77	43.8344	6.62075
	1336.67	47.9945	6.9278
	1338.57	52.3565	7.23578
	1340.47	56.5879	7.52249
	1342.37	59.2587	7.69797
	1344.27	60.1814	7.75767
	1346.17	58.1421	7.6251
	1348.07	53.2156	7.2949
	1349.98	46.0523	6.78619
	1351.88	38.2975	6.1885
	1353.78	30.5682	5.52885
	1355.68	23.9351	4.89236
	1357.58	18.144	4.25957
	1359.48	13.4949	3.67355
	1361.38	9.22109	3.03662
	1363.28	6.45724	2.54111
	1365.18	4.06216	2.01548
	1367.08	2.60415	1.61374
	1368.98	1.02396	1.01191
	1370.88	0.0668301	0.258515
	1372.78	-0.410483	0.640689
	1374.68	-0.596474	0.772317
	1376.58	-0.141597	0.376294
	1378.48	0.204413	0.452121
	1380.38	0.407601	0.638436
	1382.28	0.725548	0.851791
	1384.18	1.13249	1.06418
	1386.08	1.6311	1.27714
	1387.98	2.0524	1.43262
	1389.88	2.27569	1.50854
	1391.78	2.54672	1.59584
	1393.68	2.94287	1.71548
	1395.58	3.25537	1.80426
	1397.48	3.84152	1.95998
	1399.38	4.55596	2.13447
	1401.28	5.41999	2.32809
	1403.18	5.90366	2.42974
	1405.08	6.4242	2.5346
	1406.98	7.34618	2.71038
	1408.89	8.48019	2.91208
	1410.79	9.6764	3.11069
	1412.69	11.0671	3.32673
	1414.59	12.5587	3.54383
	1416.49	13.7336	3.70588
	1418.39	14.7611	3.84202
	1420.29	15.0854	3.884
	1422.19	14.7189	3.83653
	1424.09	13.9289	3.73215
	1425.99	12.4879	3.53382
	1427.89	10.6021	3.25609
	1429.79	8.85638	2.97597
	1431.69	7.26508	2.69538
	1433.59	5.65462	2.37795
	1435.49	4.00889	2.00222
	1437.39	2.68129	1.63746
	1439.29	1.7009	1.30419
	1441.19	0.64769	0.804792
	1443.09	-0.110886	0.332996
	1444.99	-0.294707	0.542869
	1446.89	-0.557787	0.746851
	1448.79	-0.719782	0.8484
	1450.69	-1.01742	1.00867
	1452.59	-0.765568	0.874968
	1454.49	-0.685732	0.828089
	1456.39	-0.561122	0.749081
	1458.29	-0.432339	0.657525
	1460.19	-0.0166539	0.12905
	1462.09	0.0504421	0.224593
	1463.99	-0.0710468	0.266546
	1465.89	0.0833042	0.288625
	1467.8	0.038123	0.195251
	1469.7	0.128606	0.358616
	1471.6	0.0668304	0.258516
	1473.5	0.143889	0.379328
	1475.4	0.457168	0.676142
	1477.3	0.731905	0.855514
	1479.2	0.454664	0.674287
	1481.1	0.40679	0.637801
	1483	0.433607	0.658489
	1484.9	0.869083	0.932246
	1486.8	0.756408	0.869717
	1488.7	0.588808	0.767338
	1490.6	0.364462	0.603707
	1492.5	0.461724	0.679503
	1494.4	0.644117	0.802569
	1496.3	1.03643	1.01805
	1498.2	0.855643	0.92501
	1500.1	0.32177	0.567248
	1502	-0.00766849	0.0875699
	1503.9	0.109074	0.330263
	1505.8	0.35855	0.598791
	1507.7	0.698091	0.835518
	1509.6	0.808227	0.899015
	1511.5	0.687673	0.829261
	1513.4	0.335381	0.579121
	1515.3	0.282229	0.531252
	1517.2	0.339758	0.582888
	1519.1	0.240994	0.490911
	1521	-0.00094493	0.0307397
	1522.9	-0.173868	0.416974
	1524.81	-0.0872163	0.295324
	1526.71	0.102342	0.319909
	1528.61	0.226136	0.475537
	1530.51	0.145922	0.381998
	1532.41	0.0947872	0.307875
	1534.31	0.0885029	0.297494
	1536.21	-0.0329956	0.181647
	1538.11	-0.032598	0.180549
	1540.01	0.187116	0.432569
	1541.91	0.594957	0.771334
	1543.81	0.558236	0.747152
	1545.71	0.514984	0.717624
	1547.61	0.281728	0.53078
	1549.51	0.381761	0.617868
	1551.41	1.04834	1.02389
	1553.31	1.56874	1.2525
	1555.21	1.66591	1.2907
	1557.11	1.40673	1.18606
	1559.01	1.41774	1.19069
	1560.91	1.57388	1.25454
	1562.81	2.02946	1.42459
	1564.71	2.3887	1.54554
	1566.61	2.62688	1.62077
	1568.51	2.86769	1.69343
	1570.41	3.09619	1.7596
	1572.31	3.54305	1.8823
	1574.21	3.92001	1.9799
	1576.11	4.34167	2.08367
	1578.01	4.79497	2.18974
	1579.91	5.38454	2.32046
	1581.81	6.03334	2.45629
	1583.72	6.6566	2.58004
	1585.62	7.26266	2.69493
	1587.52	8.27059	2.87586
	1589.42	9.41866	3.06898
	1591.32	10.5221	3.24378
	1593.22	11.7353	3.42569
	1595.12	13.4833	3.67196
	1597.02	15.3309	3.91547
	1598.92	17.1006	4.13529
	1600.82	18.8706	4.34403
	1602.72	20.7133	4.55119
	1604.62	22.3889	4.73169
	1606.52	23.5087	4.84857
	1608.42	25.1844	5.01841
	1610.32	26.9623	5.19252
	1612.22	29.0994	5.39439
	1614.12	31.3883	5.60253
	1616.02	33.427	5.78161
	1617.92	34.1212	5.84134
	1619.82	33.202	5.76212
	1621.72	31.684	5.62886
	1623.62	30.4924	5.52199
	1625.52	30.3575	5.50976
	1627.42	30.5046	5.5231
	1629.32	30.4847	5.5213
	1631.22	30.6085	5.53249
	1633.12	31.2479	5.58998
	1635.02	31.5027	5.61272
	1636.92	31.5475	5.61671
	1638.82	30.9509	5.56336
	1640.73	30.4139	5.51488
	1642.63	29.7268	5.45223
	1644.53	29.0112	5.3862
	1646.43	28.0916	5.30015
	1648.33	26.6512	5.16248
	1650.23	24.9329	4.99329
	1652.13	22.7459	4.76926
	1654.03	20.3446	4.5105
	1655.93	18.0238	4.24544
	1657.83	15.9564	3.99455
	1659.73	14.1932	3.76738
	1661.63	12.4008	3.52147
	1663.53	11.0332	3.32163
	1665.43	9.65665	3.10751
	1667.33	8.76693	2.9609
	1669.23	7.83428	2.79898
	1671.13	6.92258	2.63108
	1673.03	5.86952	2.42271
	1674.93	5.47656	2.3402
	1676.83	5.06939	2.25153
	1678.73	4.57565	2.13908
	1680.63	4.03851	2.0096
	1682.53	3.49757	1.87018
	1684.43	3.04651	1.74543
	1686.33	2.48242	1.57557
	1688.23	2.62921	1.62149
	1690.13	2.436	1.56077
	1692.03	2.35232	1.53373
	1693.93	1.94261	1.39377
	1695.83	1.77179	1.33109
	1697.73	1.77911	1.33383
	1699.64	1.49037	1.22081
	1701.54	0.978633	0.989259
	1703.44	0.61271	0.782758
	1705.34	0.677975	0.823392
	1707.24	1.03325	1.01649
	1709.14	0.981833	0.990875
	1711.04	0.976918	0.988392
	1712.94	1.05544	1.02735
	1714.84	1.18089	1.08669
	1716.74	1.1131	1.05504
	1718.64	1.28358	1.13295
	1720.54	1.33609	1.15589
	1722.44	1.33418	1.15507
	1724.34	1.16583	1.07974
	1726.24	1.445	1.20208
	1728.14	1.5782	1.25627
	1730.04	1.73904	1.31873
	1731.94	2.02841	1.42422
	1733.84	2.64657	1.62683
	1735.74	3.07182	1.75266
	1737.64	3.54246	1.88214
	1739.54	4.04984	2.01242
	1741.44	4.4326	2.10538
	1743.34	4.44597	2.10855
	1745.24	4.62742	2.15114
	1747.14	5.25448	2.29227
	1749.04	5.87081	2.42298
	1750.94	6.58343	2.56582
	1752.84	7.42852	2.72553
	1754.74	8.30961	2.88264
	1756.64	9.33274	3.05495
	1758.55	10.4865	3.23829
	1760.45	11.5726	3.40185
	1762.35	12.9667	3.60092
	1764.25	15.4571	3.93155
	1766.15	18.114	4.25605
	1768.05	21.3106	4.61634
	1769.95	24.6771	4.9676
	1771.85	28.4912	5.33771
	1773.75	32.721	5.72022
	1775.65	38.1225	6.17434
	1777.55	44.0515	6.63713
	1779.45	49.6379	7.04542
	1781.35	54.9903	7.41554
	1783.25	60.2722	7.76352
	1785.15	65.3149	8.08176
	1787.05	69.3876	8.32992
	1788.95	72.1852	8.49619
	1790.85	74.4456	8.62818
	1792.75	75.961	8.71556
	1794.65	76.0296	8.71949
	1796.55	74.8889	8.65384
	1798.45	72.4576	8.5122
	1800.35	69.7652	8.35256
	1802.25	66.5743	8.15931
	1804.15	63.0295	7.93911
	1806.05	59.3266	7.70238
	1807.95	55.0441	7.41917
	1809.85	50.2055	7.08559
	1811.75	46.4152	6.81287
	1813.65	42.0404	6.48386
	1815.56	38.3863	6.19567
	1817.46	34.5792	5.88041
	1819.36	30.7817	5.54812
	1821.26	26.9969	5.19585
	1823.16	23.1075	4.80703
	1825.06	19.5013	4.41603
	1826.96	17.3114	4.1607
	1828.86	15.1714	3.89505
	1830.76	13.0474	3.61212
	1832.66	10.819	3.28923
	1834.56	9.27499	3.04549
	1836.46	8.04085	2.83564
	1838.36	7.08332	2.66145
	1840.26	6.07501	2.46475
	1842.16	5.30952	2.30424
	1844.06	4.64404	2.155
	1845.96	4.066	2.01643
	1847.86	3.66558	1.91457
	1849.76	3.3213	1.82244
	1851.66	2.75407	1.65954
	1853.56	2.27662	1.50885
	1855.46	1.83397	1.35424
	1857.36	1.67883	1.2957
	1859.26	1.50959	1.22865
	1861.16	1.35828	1.16545
	1863.06	1.33506	1.15545
	1864.96	0.878262	0.937156
	1866.86	0.621478	0.788339
	1868.76	0.602746	0.776367
	1870.66	0.713913	0.844934
	1872.56	0.660032	0.812423
	1874.47	0.900296	0.948839
	1876.37	1.26557	1.12498
	1878.27	1.31056	1.1448
	1880.17	1.49606	1.22313
	1882.07	1.87265	1.36845
	1883.97	2.58313	1.60721
	1885.87	3.31347	1.82029
	1887.77	3.91677	1.97908
	1889.67	4.49701	2.12062
	1891.57	5.03861	2.24469
	1893.47	5.88033	2.42494
	1895.37	6.44209	2.53813
	1897.27	6.90508	2.62775
	1899.17	6.911	2.62888
	1901.07	6.82873	2.61318
	1902.97	6.27226	2.50445
	1904.87	5.9982	2.44912
	1906.77	5.53764	2.35322
	1908.67	5.33147	2.309
	1910.57	4.77209	2.18451
	1912.47	4.15229	2.03772
	1914.37	3.36132	1.83339
	1916.27	3.02205	1.7384
	1918.17	2.5765	1.60515
	1920.07	1.89695	1.3773
	1921.97	1.41057	1.18767
	1923.87	0.912571	0.955286
	1925.77	0.471573	0.686712
	1927.67	0.0461308	0.214781
	1929.57	-0.19573	0.442413
	1931.48	-0.448739	0.66988
	1933.38	-0.695344	0.833873
	1935.28	-0.744084	0.862603
	1937.18	-0.618208	0.786262
	1939.08	-0.284746	0.533616
	1940.98	-0.313768	0.56015
	1942.88	-0.38656	0.621739
	1944.78	-0.238027	0.48788
	1946.68	0.205883	0.453743
	1948.58	0.44761	0.669037
	1950.48	0.813066	0.901702
	1952.38	1.30028	1.1403
	1954.28	1.77556	1.3325
	1956.18	2.22204	1.49065
	1958.08	2.87679	1.69611
	1959.98	3.60219	1.89794
	1961.88	4.53559	2.12969
	1963.78	5.46689	2.33814
	1965.68	6.87173	2.6214
	1967.58	8.16164	2.85686
	1969.48	9.86986	3.14163
	1971.38	12.1305	3.48289
	1973.28	13.8577	3.7226
	1975.18	15.305	3.91216
	1977.08	16.1376	4.01717
	1978.98	16.5502	4.0682
	1980.88	16.3036	4.03777
	1982.78	15.4246	3.92742
	1984.68	14.5432	3.81356
	1986.58	12.8589	3.58593
	1988.48	11.2444	3.35326
	1990.39	9.63104	3.10339
	1992.29	8.42841	2.90317
	1994.19	7.43349	2.72644
	1996.09	6.24271	2.49854
	1997.99	4.91987	2.21808
	1999.89	3.91038	1.97747
	2001.79	3.34752	1.82962
	2003.69	2.8044	1.67464
	2005.59	2.11913	1.45572
	2007.49	1.63428	1.27839
	2009.39	1.2619	1.12334
	2011.29	1.09393	1.04591
	2013.19	0.982966	0.991446
	2015.09	0.85352	0.923862
	2016.99	0.573117	0.757045
	2018.89	0.494794	0.703416
	2020.79	0.307577	0.554597
	2022.69	0.192389	0.438622
	2024.59	0.16671	0.408302
	2026.49	0.195432	0.442077
	2028.39	0.00916833	0.0957514
	2030.29	-0.0105992	0.102952
	2032.19	-0.0129062	0.113605
	2034.09	0.111078	0.333284
	2035.99	0.196119	0.442853
	2037.89	0.244971	0.494945
	2039.79	0.23928	0.489163
	2041.69	0.0494605	0.222397
	2043.59	-0.00595323	0.0771572
	2045.49	0.113724	0.33723
	2047.39	0.25716	0.507109
	2049.3	0.275138	0.524536
	2051.2	0.260553	0.510444
	2053.1	0.0922326	0.303698
	2055	0.137457	0.370752
	2056.9	0.279903	0.529058
	2058.8	0.17922	0.423344
	2060.7	-0.00863296	0.0929137
	2062.6	-0.0684825	0.261692
	2064.5	-0.00884215	0.0940327
	2066.4	0.229244	0.478794
	2068.3	0.395971	0.629262
	2070.2	0.328059	0.572764
	2072.1	0.104615	0.323443
	2074	0.122848	0.350497
	2075.9	0.202497	0.449996
	2077.8	0.0594854	0.243896
	2079.7	0.0727471	0.269717
	2081.6	0.260371	0.510266
	2083.5	0.207548	0.455574
	2085.4	-0.0177087	0.133074
	2087.3	-0.0805496	0.283813
	2089.2	0.12435	0.352632
	2091.1	0.387252	0.622296
	2093	0.333329	0.577346
	2094.9	0.150368	0.387774
	2096.8	0.136098	0.368914
	2098.7	0.43056	0.656171
	2100.6	0.494815	0.703431
	2102.5	0.703817	0.838938
	2104.4	0.750445	0.866282
	2106.31	0.620303	0.787593
	2108.21	0.58671	0.76597
	2110.11	0.410841	0.640969
	2112.01	0.287545	0.536233
	2113.91	0.175603	0.41905
	2115.81	0.283396	0.53235
	2117.71	0.353028	0.594161
	2119.61	0.710373	0.842836
	2121.51	0.920755	0.95956
	2123.41	0.82982	0.910945
	2125.31	0.605294	0.778006
	2127.21	0.501936	0.708475
	2129.11	0.696804	0.834748
	2131.01	0.437716	0.661601
	2132.91	0.18165	0.426204
	2134.81	-0.065098	0.255143
	2136.71	-0.0396174	0.199041
	2138.61	0.10039	0.316844
	2140.51	0.247596	0.49759
	2142.41	0.380636	0.616957
	2144.31	0.306598	0.553713
	2146.21	0.208271	0.456367
	2148.11	0.174335	0.417534
	2150.01	0.129228	0.359483
	2151.91	-0.0060412	0.0777251
	2153.81	-0.00389183	0.0623846
	2155.71	-0.0744929	0.272934
	2157.61	-0.0951412	0.30845
	2159.51	0.023305	0.15266
	2161.41	0.0928104	0.304648
	2163.31	0.0473453	0.21759
	2165.22	0.192703	0.438979
	2167.12	0.291291	0.539714
	2169.02	0.302713	0.550194
	2170.92	0.485481	0.696765
	2172.82	0.544588	0.737962
	2174.72	0.294527	0.542704
	2176.62	0.0119797	0.109452
	2178.52	-0.147083	0.383513
	2180.42	-0.0296258	0.172121
	2182.32	0.131832	0.363087
	2184.22	0.0610237	0.24703
	2186.12	0.025765	0.160515
	2188.02	-0.0631407	0.251278
	2189.92	-0.0606173	0.246206
	2191.82	-0.139816	0.37392
	2193.72	0.00852549	0.0923336
	2195.62	0.117471	0.34274
	2197.52	0.115021	0.339147
	2199.42	-0.0414651	0.20363
	2201.32	-0.10888	0.329969
	2203.22	0.0483411	0.219866
