Generated file C:/Users/didvk/Downloads/Dioptas_Win64_0.5.0/1_mask&dat&fxye_1position/8_ReMoB2_500psi_50p0GPa_S_P1_C1_D1w_055.fxye using DIOPTAS
# == pyFAI calibration ==
# Distance Sample to Detector: 0.21643023575112377 m
# PONI: 8.848e-02, 8.638e-02 m
# Rotations: 0.008179 -0.001145 -0.000000 rad
# 
# == Fit2d calibration ==
# Distance Sample-beamCenter: 216.438 mm
# Center: x=491.896, y=512.970 pix
# Tilt: 0.473 deg  TiltPlanRot: -172.032 deg
# 
# Detector Pilatus CdTe 1M	 PixelSize= 1.720e-04, 1.720e-04 m
#    Detector has a mask: True 
#    Detector has a dark current: False 
#    detector has a flat field: False 
# 
# Wavelength: 4.133e-11 m
# Mask applied: None
# Dark current applied: None
# Flat field applied: None
# Polarization factor: None
# Normalization factor: None
BANK	1	1006	1006 CONS	293.393	1.90033 0.4133 0.0 FXYE
	293.393	0.549653	0.741386
	295.294	0.248027	0.498023
	297.194	0.230242	0.479836
	299.094	0.173899	0.417012
	300.995	0.348543	0.590376
	302.895	0.330667	0.575036
	304.795	-0.0894189	0.29903
	306.696	-0.020436	0.142954
	308.596	0.318863	0.564679
	310.496	0.625037	0.790593
	312.397	0.898952	0.948131
	314.297	0.477238	0.690824
	316.197	0.582946	0.763509
	318.098	0.471463	0.686632
	319.998	0.160439	0.400548
	321.898	0.208843	0.456994
	323.799	0.196052	0.442778
	325.699	0.592323	0.769625
	327.599	0.637267	0.79829
	329.5	0.889096	0.942919
	331.4	0.719107	0.848002
	333.3	0.984699	0.99232
	335.201	1.03821	1.01893
	337.101	1.47207	1.21329
	339.001	1.96175	1.40062
	340.902	3.2823	1.81171
	342.802	6.46963	2.54355
	344.702	11.3986	3.37618
	346.603	18.4124	4.29097
	348.503	27.0935	5.20514
	350.403	33.6279	5.79896
	352.304	35.4896	5.95732
	354.204	30.9111	5.55977
	356.104	21.0939	4.59281
	358.005	12.842	3.58357
	359.905	7.15144	2.67422
	361.805	4.24709	2.06085
	363.706	2.60269	1.61329
	365.606	1.83141	1.35329
	367.506	1.30195	1.14103
	369.407	1.21928	1.10421
	371.307	0.777179	0.881578
	373.207	0.774444	0.880025
	375.108	0.586928	0.766112
	377.008	0.521592	0.722214
	378.908	0.575734	0.758771
	380.808	0.934425	0.966656
	382.709	1.04855	1.02399
	384.609	0.957434	0.978486
	386.509	0.514183	0.717066
	388.41	0.480342	0.693067
	390.31	0.768259	0.876504
	392.21	0.874189	0.934981
	394.111	0.599745	0.774432
	396.011	0.16265	0.403298
	397.911	0.109859	0.331449
	399.812	0.229321	0.478875
	401.712	0.481836	0.694144
	403.612	0.238634	0.488502
	405.513	0.278408	0.527644
	407.413	-0.0321091	0.17919
	409.313	0.180903	0.425327
	411.214	0.151752	0.389554
	413.114	0.67678	0.822667
	415.014	0.729592	0.854162
	416.915	0.727879	0.853158
	418.815	0.411235	0.641276
	420.715	0.320655	0.566264
	422.616	0.566824	0.752877
	424.516	-0.0539325	0.232234
	426.416	0.0955913	0.309178
	428.317	0.344048	0.586556
	430.217	0.509317	0.713665
	432.117	0.300648	0.548314
	434.018	-0.0353438	0.188
	435.918	0.115321	0.339589
	437.818	0.449558	0.670491
	439.719	1.22354	1.10614
	441.619	1.64148	1.2812
	443.519	1.51303	1.23005
	445.42	1.33219	1.15421
	447.32	1.0153	1.00762
	449.22	0.994185	0.997088
	451.121	0.834428	0.91347
	453.021	0.874872	0.935346
	454.921	0.392084	0.626166
	456.822	0.272718	0.522224
	458.722	-0.0119162	0.109161
	460.622	-0.149641	0.386834
	462.523	0.0492813	0.221994
	464.423	-0.0243226	0.155957
	466.323	0.330595	0.574974
	468.224	0.423673	0.650902
	470.124	0.192595	0.438857
	472.024	0.111203	0.333471
	473.924	0.418826	0.647168
	475.825	0.600076	0.774646
	477.725	0.739304	0.859828
	479.625	0.525311	0.724783
	481.526	0.603531	0.776873
	483.426	0.334213	0.578111
	485.326	0.209385	0.457586
	487.227	0.409777	0.640138
	489.127	0.236555	0.486369
	491.027	0.0260321	0.161345
	492.928	0.273998	0.523448
	494.828	0.451919	0.672249
	496.728	0.370953	0.609059
	498.629	0.302878	0.550344
	500.529	0.456663	0.675769
	502.429	1.02079	1.01034
	504.33	0.833246	0.912823
	506.23	0.574893	0.758217
	508.13	0.392154	0.626222
	510.031	-0.271002	0.520579
	511.931	-0.176832	0.420515
	513.831	0.399542	0.632093
	515.732	0.790433	0.889063
	517.632	0.781089	0.883792
	519.532	0.759887	0.871715
	521.433	0.580434	0.761862
	523.333	0.500396	0.707386
	525.233	0.178315	0.422274
	527.134	0.108643	0.329611
	529.034	0.299985	0.547709
	530.934	0.359648	0.599707
	532.835	0.339846	0.582963
	534.735	0.0506524	0.225061
	536.635	0.0865951	0.294271
	538.536	0.43374	0.65859
	540.436	0.948418	0.973868
	542.336	0.506912	0.711977
	544.237	0.295277	0.543394
	546.137	0.134433	0.366651
	548.037	-0.193531	0.439921
	549.938	-0.0598284	0.244598
	551.838	0.130942	0.361859
	553.738	0.310883	0.557569
	555.639	0.210562	0.45887
	557.539	0.163679	0.404573
	559.439	0.55208	0.743021
	561.34	0.665311	0.815666
	563.24	0.655392	0.809563
	565.14	0.457353	0.676279
	567.041	0.532825	0.729948
	568.941	0.621854	0.788577
	570.841	0.823444	0.907438
	572.741	1.70258	1.30483
	574.642	2.96956	1.72324
	576.542	3.85329	1.96298
	578.442	4.36401	2.08902
	580.343	4.89998	2.21359
	582.243	5.00468	2.23711
	584.143	4.79483	2.18971
	586.044	4.09394	2.02335
	587.944	3.27938	1.81091
	589.844	2.34044	1.52985
	591.745	1.59481	1.26286
	593.645	1.07834	1.03843
	595.545	0.733276	0.856316
	597.446	1.00648	1.00323
	599.346	1.33838	1.15689
	601.246	1.16935	1.08137
	603.147	0.585862	0.765416
	605.047	-0.145433	0.381357
	606.947	-0.192538	0.438791
	608.848	0.159652	0.399564
	610.748	0.553875	0.744228
	612.648	0.42983	0.655614
	614.549	0.345779	0.58803
	616.449	0.32511	0.570185
	618.349	0.38847	0.623273
	620.25	0.377948	0.614775
	622.15	0.269828	0.51945
	624.05	0.379871	0.616336
	625.951	0.708137	0.841509
	627.851	0.97208	0.985941
	629.751	1.51227	1.22974
	631.652	1.84298	1.35756
	633.552	2.59933	1.61224
	635.452	4.45328	2.11028
	637.353	7.9294	2.81592
	639.253	13.1841	3.63099
	641.153	18.8892	4.34617
	643.054	22.4713	4.74039
	644.954	23.6824	4.86646
	646.854	19.9615	4.46783
	648.755	14.6388	3.82607
	650.655	8.34549	2.88886
	652.555	5.44436	2.33331
	654.456	3.80601	1.9509
	656.356	3.0477	1.74577
	658.256	2.34231	1.53046
	660.157	2.44463	1.56353
	662.057	3.18939	1.78589
	663.957	4.53793	2.13024
	665.857	5.953	2.43988
	667.758	7.56576	2.75059
	669.658	9.80915	3.13196
	671.558	12.1011	3.47867
	673.459	13.8703	3.72429
	675.359	14.3955	3.79414
	677.259	13.9003	3.72831
	679.16	12.312	3.50885
	681.06	11.2915	3.36029
	682.96	11.4944	3.39034
	684.861	12.2977	3.50681
	686.761	13.6025	3.68815
	688.661	16.4636	4.05754
	690.562	22.483	4.74162
	692.462	30.9953	5.56734
	694.362	45.61	6.75352
	696.263	62.5321	7.90772
	698.163	84.1307	9.17228
	700.063	102.232	10.111
	701.964	114.351	10.6935
	703.864	111.798	10.5735
	705.764	102.903	10.1441
	707.665	84.5225	9.19361
	709.565	67.2411	8.20007
	711.465	51.1557	7.15232
	713.366	37.3271	6.10959
	715.266	27.0895	5.20476
	717.166	19.212	4.38315
	719.067	13.2232	3.63637
	720.967	9.67299	3.11014
	722.867	6.56666	2.56255
	724.768	4.84258	2.20059
	726.668	3.73158	1.93173
	728.568	3.09449	1.75912
	730.469	2.61991	1.61861
	732.369	2.3962	1.54797
	734.269	2.08567	1.44418
	736.17	1.37074	1.17079
	738.07	0.911641	0.954799
	739.97	0.834877	0.913716
	741.871	1.01625	1.00809
	743.771	1.1705	1.0819
	745.671	1.28684	1.13439
	747.572	1.0915	1.04475
	749.472	0.787458	0.887388
	751.372	0.580782	0.762091
	753.273	0.814856	0.902694
	755.173	1.25619	1.1208
	757.073	1.02319	1.01153
	758.973	0.921725	0.960065
	760.874	0.635284	0.797047
	762.774	-0.0379296	0.194755
	764.674	-0.356556	0.597123
	766.575	-0.105896	0.325416
	768.475	0.250194	0.500194
	770.375	0.484193	0.69584
	772.276	0.687903	0.829399
	774.176	0.673309	0.820554
	776.076	0.87324	0.934473
	777.977	0.785513	0.886292
	779.877	0.957196	0.978364
	781.777	0.773231	0.879335
	783.678	0.39521	0.628657
	785.578	0.299632	0.547387
	787.478	0.60232	0.776093
	789.379	0.6321	0.795047
	791.279	0.601062	0.775282
	793.179	0.942766	0.970961
	795.08	1.15384	1.07417
	796.98	0.936661	0.967812
	798.88	0.621412	0.788297
	800.781	0.380284	0.616672
	802.681	0.562773	0.750182
	804.581	0.105725	0.325155
	806.482	-0.0966	0.310805
	808.382	-0.102939	0.320841
	810.282	0.123563	0.351515
	812.183	0.396593	0.629757
	814.083	0.489441	0.6996
	815.983	0.445937	0.667785
	817.884	0.144697	0.380391
	819.784	-0.184693	0.429759
	821.684	0.0244376	0.156325
	823.585	0.209887	0.458134
	825.485	0.585715	0.76532
	827.385	0.507847	0.712634
	829.286	0.558784	0.747519
	831.186	0.307698	0.554706
	833.086	0.254028	0.504012
	834.987	0.432769	0.657852
	836.887	0.769257	0.877073
	838.787	0.798129	0.89338
	840.688	0.43652	0.660697
	842.588	0.421673	0.649364
	844.488	0.427178	0.653588
	846.389	0.434205	0.658942
	848.289	0.522448	0.722806
	850.189	0.261298	0.511173
	852.089	-0.0320978	0.179159
	853.99	-0.06978	0.264159
	855.89	0.144008	0.379484
	857.79	0.355653	0.596366
	859.691	0.552273	0.743151
	861.591	0.591677	0.769205
	863.491	0.747745	0.864723
	865.392	0.838319	0.915598
	867.292	0.693706	0.83289
	869.192	0.27672	0.526042
	871.093	-0.0353418	0.187994
	872.993	-0.153527	0.391825
	874.893	0.0130048	0.114038
	876.794	0.477127	0.690743
	878.694	0.419966	0.648048
	880.594	0.415103	0.644285
	882.495	0.286524	0.535279
	884.395	0.382795	0.618704
	886.295	0.636753	0.797968
	888.196	0.73444	0.856995
	890.096	0.539274	0.734353
	891.996	0.297928	0.545828
	893.897	-0.103737	0.322082
	895.797	-0.0980575	0.313141
	897.697	0.0693174	0.263282
	899.598	0.519217	0.720567
	901.498	1.29861	1.13957
	903.398	1.77532	1.33241
	905.299	2.5576	1.59925
	907.199	3.51028	1.87357
	909.099	5.06126	2.24972
	911	6.41425	2.53264
	912.9	8.36672	2.89253
	914.8	11.148	3.33887
	916.701	14.3053	3.78223
	918.601	17.821	4.22149
	920.501	21.2433	4.60905
	922.402	25.6179	5.06141
	924.302	30.7649	5.54661
	926.202	36.9111	6.07545
	928.103	44.2428	6.65153
	930.003	52.6242	7.25425
	931.903	64.5751	8.03587
	933.804	79.807	8.93348
	935.704	100.751	10.0375
	937.604	129.301	11.371
	939.505	167.521	12.943
	941.405	221.742	14.891
	943.305	287.909	16.9679
	945.206	364.654	19.0959
	947.106	437.672	20.9206
	949.006	496.839	22.2899
	950.906	531.432	23.0528
	952.807	536.111	23.1541
	954.707	527.091	22.9585
	956.607	500.53	22.3725
	958.508	461.363	21.4794
	960.408	408.805	20.2189
	962.308	361.576	19.0152
	964.209	316.144	17.7804
	966.109	279.698	16.7242
	968.009	249.395	15.7923
	969.91	221.419	14.8802
	971.81	196.871	14.0311
	973.71	170.979	13.0759
	975.611	146.269	12.0942
	977.511	121.093	11.0042
	979.411	98.0878	9.90393
	981.312	77.5623	8.80695
	983.212	61.2706	7.82755
	985.112	48.076	6.93368
	987.013	37.5582	6.12847
	988.913	29.5101	5.43232
	990.813	22.5448	4.74814
	992.714	17.4628	4.17885
	994.614	13.4756	3.67091
	996.514	10.4408	3.23123
	998.415	7.62374	2.76111
	1000.31	5.48693	2.34242
	1002.22	3.99383	1.99846
	1004.12	2.74819	1.65777
	1006.02	1.66687	1.29107
	1007.92	1.28349	1.13291
	1009.82	0.493446	0.702457
	1011.72	0.190748	0.436747
	1013.62	-0.168636	0.410653
	1015.52	-0.1439	0.379342
	1017.42	-0.731002	0.854987
	1019.32	-1.03959	1.0196
	1021.22	-0.94387	0.97153
	1023.12	-0.679731	0.824458
	1025.02	-0.588285	0.766997
	1026.92	-0.292892	0.541195
	1028.82	-0.0357502	0.189077
	1030.72	0.394403	0.628015
	1032.62	0.3661	0.605062
	1034.52	0.610482	0.781334
	1036.42	0.627882	0.79239
	1038.32	1.37976	1.17463
	1040.22	2.32147	1.52364
	1042.12	3.38724	1.84044
	1044.02	4.47188	2.11468
	1045.92	6.18945	2.48786
	1047.82	8.25393	2.87297
	1049.72	10.7325	3.27606
	1051.62	13.1091	3.62065
	1053.52	15.7622	3.97016
	1055.42	18.1845	4.26432
	1057.32	20.6767	4.54716
	1059.23	22.8506	4.78023
	1061.13	24.9435	4.99435
	1063.03	26.7241	5.16953
	1064.93	27.6518	5.25849
	1066.83	27.8888	5.28099
	1068.73	26.9302	5.18943
	1070.63	25.3435	5.03423
	1072.53	22.8556	4.78075
	1074.43	20.8711	4.56849
	1076.33	19.3952	4.404
	1078.23	18.8652	4.34341
	1080.13	18.254	4.27246
	1082.03	18.2596	4.27312
	1083.93	18.5437	4.30624
	1085.83	19.0137	4.36047
	1087.73	19.99	4.47102
	1089.63	20.9933	4.58185
	1091.53	22.4354	4.7366
	1093.43	23.5312	4.8509
	1095.33	25.1537	5.01535
	1097.23	26.4671	5.14462
	1099.13	28.1628	5.30686
	1101.03	29.5169	5.43295
	1102.93	31.0158	5.56918
	1104.83	32.1315	5.66847
	1106.73	32.5767	5.7076
	1108.63	32.8024	5.72734
	1110.53	32.7111	5.71936
	1112.43	32.934	5.73882
	1114.33	33.1238	5.75533
	1116.23	33.0123	5.74563
	1118.14	32.0407	5.66045
	1120.04	31.1952	5.58526
	1121.94	31.1318	5.57958
	1123.84	31.2552	5.59064
	1125.74	31.8699	5.64535
	1127.64	32.2831	5.68182
	1129.54	31.0589	5.57305
	1131.44	29.2217	5.40571
	1133.34	26.5647	5.15409
	1135.24	24.1747	4.91678
	1137.14	20.5439	4.53254
	1139.04	17.0736	4.13202
	1140.94	13.4676	3.66982
	1142.84	10.8086	3.28764
	1144.74	8.73277	2.95513
	1146.64	7.45991	2.73128
	1148.54	6.4667	2.54297
	1150.44	5.41279	2.32654
	1152.34	4.3491	2.08545
	1154.24	3.51098	1.87376
	1156.14	3.00833	1.73445
	1158.04	2.77369	1.66544
	1159.94	2.65394	1.62909
	1161.84	2.52529	1.58912
	1163.74	2.1092	1.45231
	1165.64	2.05273	1.43274
	1167.54	2.02037	1.4214
	1169.44	1.54121	1.24146
	1171.34	0.84651	0.92006
	1173.24	0.166757	0.408359
	1175.15	-0.24186	0.491793
	1177.05	-0.383673	0.619414
	1178.95	-0.558757	0.7475
	1180.85	-0.49507	0.703612
	1182.75	-0.520867	0.721711
	1184.65	-0.8618	0.928332
	1186.55	-1.16909	1.08124
	1188.45	-0.979707	0.989802
	1190.35	-0.447806	0.669183
	1192.25	-0.377805	0.614658
	1194.15	-0.428635	0.654703
	1196.05	-0.40093	0.63319
	1197.95	-0.0414493	0.203591
	1199.85	0.540255	0.73502
	1201.75	1.18611	1.08909
	1203.65	1.83182	1.35345
	1205.55	2.89432	1.70127
	1207.45	4.49983	2.12128
	1209.35	5.86407	2.42158
	1211.25	7.5343	2.74487
	1213.15	8.81432	2.96889
	1215.05	9.91906	3.14945
	1216.95	11.1449	3.33839
	1218.85	12.1749	3.48925
	1220.75	12.9756	3.60217
	1222.65	13.3572	3.65475
	1224.55	13.7382	3.7065
	1226.45	14.539	3.81301
	1228.35	15.4365	3.92893
	1230.25	16.2399	4.02987
	1232.15	17.5117	4.1847
	1234.06	18.8906	4.34634
	1235.96	20.297	4.50522
	1237.86	21.6376	4.65162
	1239.76	23.4997	4.84764
	1241.66	26.2823	5.12663
	1243.56	29.6702	5.44703
	1245.46	33.285	5.76931
	1247.36	38.318	6.19016
	1249.26	43.9314	6.62808
	1251.16	50.8556	7.13131
	1253.06	58.3073	7.63592
	1254.96	66.4515	8.15178
	1256.86	77.6065	8.80945
	1258.76	86.5032	9.30071
	1260.66	98.523	9.92588
	1262.56	106.294	10.3099
	1264.46	117.564	10.8427
	1266.36	121.828	11.0376
	1268.26	122.927	11.0872
	1270.16	117.09	10.8208
	1272.06	108.74	10.4279
	1273.96	92.7441	9.63037
	1275.86	82.428	9.07899
	1277.76	70.6969	8.40814
	1279.66	62.1752	7.88512
	1281.56	55.1646	7.42729
	1283.46	49.5392	7.03841
	1285.36	45.4611	6.74249
	1287.26	42.8183	6.54357
	1289.16	41.1009	6.411
	1291.06	39.819	6.31023
	1292.97	38.7171	6.2223
	1294.87	37.8963	6.15599
	1296.77	36.9538	6.07897
	1298.67	36.615	6.05103
	1300.57	36.3427	6.02849
	1302.47	35.118	5.92605
	1304.37	34.3965	5.86485
	1306.27	33.6681	5.80242
	1308.17	33.6296	5.7991
	1310.07	33.2474	5.76606
	1311.97	33.0694	5.7506
	1313.87	32.6756	5.71625
	1315.77	32.4767	5.69884
	1317.67	32.1406	5.66927
	1319.57	31.9893	5.65591
	1321.47	31.9697	5.65417
	1323.37	32.0774	5.66369
	1325.27	32.2022	5.6747
	1327.17	32.4463	5.69617
	1329.07	33.1755	5.75981
	1330.97	33.6552	5.80131
	1332.87	34.562	5.87895
	1334.77	35.6967	5.97467
	1336.67	37.8009	6.14824
	1338.57	40.4405	6.35928
	1340.47	43.2522	6.57664
	1342.37	45.7908	6.76689
	1344.27	48.6409	6.9743
	1346.17	49.7338	7.05222
	1348.07	49.2912	7.02077
	1349.98	46.1546	6.79372
	1351.88	41.4163	6.43555
	1353.78	35.059	5.92106
	1355.68	29.1676	5.4007
	1357.58	23.2422	4.82102
	1359.48	17.8137	4.22063
	1361.38	12.7469	3.57028
	1363.28	9.04938	3.00822
	1365.18	5.90999	2.43105
	1367.08	3.64633	1.90954
	1368.98	1.85016	1.3602
	1370.88	0.765108	0.874705
	1372.78	0.126225	0.355281
	1374.68	-0.253941	0.503925
	1376.58	-0.639662	0.799789
	1378.48	-0.435766	0.660126
	1380.38	-0.422429	0.649945
	1382.28	0.0263859	0.162438
	1384.18	0.306001	0.553174
	1386.08	0.864194	0.92962
	1387.98	1.55352	1.2464
	1389.88	2.04558	1.43024
	1391.78	2.51973	1.58736
	1393.68	2.48224	1.57551
	1395.58	2.61087	1.61582
	1397.48	3.10705	1.76268
	1399.38	3.76688	1.94084
	1401.28	4.91588	2.21718
	1403.18	6.08884	2.46756
	1405.08	7.02474	2.65042
	1406.98	8.02316	2.83252
	1408.89	8.9739	2.99565
	1410.79	10.3999	3.22489
	1412.69	11.6337	3.41081
	1414.59	12.9161	3.5939
	1416.49	13.9714	3.73783
	1418.39	15.6548	3.95661
	1420.29	16.7692	4.09502
	1422.19	17.0703	4.13163
	1424.09	16.6266	4.07757
	1425.99	15.7395	3.96731
	1427.89	14.6214	3.8238
	1429.79	13.0656	3.61464
	1431.69	11.2088	3.34796
	1433.59	9.47978	3.07892
	1435.49	7.41488	2.72303
	1437.39	5.3385	2.31052
	1439.29	3.5375	1.88083
	1441.19	2.25067	1.50022
	1443.09	1.1558	1.07508
	1444.99	0.334559	0.578411
	1446.89	-0.162039	0.402541
	1448.79	-0.315852	0.562007
	1450.69	-0.56735	0.753226
	1452.59	-0.483833	0.695581
	1454.49	-0.560473	0.748647
	1456.39	-0.54512	0.738322
	1458.29	-0.464616	0.681628
	1460.19	-0.299106	0.546906
	1462.09	-0.397842	0.630747
	1463.99	-0.558067	0.747039
	1465.89	-0.515193	0.717769
	1467.8	-0.30405	0.551407
	1469.7	-0.143728	0.379114
	1471.6	0.11589	0.340426
	1473.5	0.255721	0.505689
	1475.4	0.200032	0.44725
	1477.3	0.0693656	0.263374
	1479.2	-0.140092	0.374289
	1481.1	0.133921	0.365952
	1483	0.316826	0.562873
	1484.9	0.456593	0.675717
	1486.8	0.316889	0.562929
	1488.7	0.347982	0.5899
	1490.6	0.595385	0.771612
	1492.5	0.953364	0.976403
	1494.4	1.04189	1.02073
	1496.3	1.08981	1.04394
	1498.2	0.776328	0.881095
	1500.1	0.687842	0.829362
	1502	0.333904	0.577845
	1503.9	0.328281	0.572958
	1505.8	0.380307	0.616691
	1507.7	0.447404	0.668883
	1509.6	0.242274	0.492213
	1511.5	-0.00458686	0.0677264
	1513.4	0.118427	0.344132
	1515.3	0.464113	0.681258
	1517.2	0.532941	0.730028
	1519.1	0.605853	0.778366
	1521	0.500132	0.7072
	1522.9	0.494084	0.702911
	1524.81	0.572785	0.756826
	1526.71	0.391833	0.625966
	1528.61	0.128136	0.357961
	1530.51	-0.0268801	0.163951
	1532.41	-0.014139	0.118908
	1534.31	0.0295482	0.171896
	1536.21	0.221067	0.470178
	1538.11	0.244583	0.494553
	1540.01	0.162467	0.403072
	1541.91	0.185655	0.430877
	1543.81	0.464824	0.68178
	1545.71	0.549718	0.74143
	1547.61	0.36847	0.607017
	1549.51	0.204177	0.451859
	1551.41	0.396686	0.62983
	1553.31	0.767915	0.876308
	1555.21	0.865203	0.930163
	1557.11	0.827744	0.909804
	1559.01	0.967101	0.983413
	1560.91	1.47949	1.21634
	1562.81	1.8588	1.36338
	1564.71	1.97253	1.40447
	1566.61	1.95944	1.3998
	1568.51	2.22547	1.4918
	1570.41	2.78693	1.66941
	1572.31	3.09347	1.75883
	1574.21	3.43397	1.8531
	1576.11	3.84307	1.96037
	1578.01	4.21498	2.05304
	1579.91	4.60686	2.14636
	1581.81	4.78953	2.1885
	1583.72	5.19261	2.27873
	1585.62	6.17649	2.48525
	1587.52	7.27593	2.69739
	1589.42	8.27088	2.87591
	1591.32	9.07764	3.01291
	1593.22	9.98122	3.15931
	1595.12	11.0374	3.32226
	1597.02	12.4368	3.52659
	1598.92	14.2416	3.7738
	1600.82	16.282	4.0351
	1602.72	17.8527	4.22524
	1604.62	19.1277	4.37352
	1606.52	19.8811	4.45883
	1608.42	20.6104	4.53987
	1610.32	20.9804	4.58044
	1612.22	21.6161	4.64931
	1614.12	22.4506	4.73821
	1616.02	23.3083	4.82787
	1617.92	24.3231	4.93185
	1619.82	25.4039	5.04023
	1621.72	26.591	5.15664
	1623.62	27.4163	5.23606
	1625.52	28.2117	5.31147
	1627.42	29.0357	5.38848
	1629.32	29.4539	5.42715
	1631.22	29.9993	5.47716
	1633.12	30.4277	5.51613
	1635.02	30.529	5.5253
	1636.92	30.9089	5.55957
	1638.82	31.2858	5.59337
	1640.73	31.1375	5.5801
	1642.63	30.7123	5.54187
	1644.53	29.8885	5.46704
	1646.43	28.7554	5.36241
	1648.33	27.9241	5.28432
	1650.23	26.6009	5.15761
	1652.13	25.0257	5.00257
	1654.03	22.9585	4.79151
	1655.93	21.1454	4.59841
	1657.83	18.9549	4.35373
	1659.73	17.0174	4.12521
	1661.63	15.0173	3.87522
	1663.53	13.4229	3.66372
	1665.43	11.6015	3.4061
	1667.33	10.3561	3.21809
	1669.23	8.7716	2.96169
	1671.13	7.61264	2.7591
	1673.03	6.66752	2.58215
	1674.93	6.31679	2.51332
	1676.83	5.63649	2.37413
	1678.73	4.72577	2.17388
	1680.63	4.13551	2.0336
	1682.53	3.95742	1.98933
	1684.43	3.60439	1.89852
	1686.33	3.20275	1.78962
	1688.23	2.95094	1.71783
	1690.13	2.61619	1.61746
	1692.03	2.30119	1.51697
	1693.93	1.96628	1.40224
	1695.83	1.69586	1.30225
	1697.73	1.6739	1.29379
	1699.64	1.79911	1.34131
	1701.54	1.6793	1.29588
	1703.44	1.37251	1.17154
	1705.34	1.27676	1.12994
	1707.24	1.34563	1.16001
	1709.14	1.3248	1.151
	1711.04	1.33277	1.15446
	1712.94	1.35133	1.16247
	1714.84	1.40653	1.18597
	1716.74	1.44445	1.20185
	1718.64	1.41736	1.19053
	1720.54	1.12206	1.05927
	1722.44	0.945547	0.972392
	1724.34	0.972504	0.986156
	1726.24	1.31605	1.14719
	1728.14	1.3471	1.16065
	1730.04	1.51616	1.23132
	1731.94	1.85806	1.36311
	1733.84	2.12956	1.4593
	1735.74	2.48181	1.57538
	1737.64	2.8893	1.69979
	1739.54	3.03272	1.74147
	1741.44	3.21188	1.79217
	1743.34	3.55985	1.88676
	1745.24	4.07062	2.01758
	1747.14	4.69374	2.1665
	1749.04	5.17384	2.27461
	1750.94	5.44372	2.33318
	1752.84	6.12656	2.47519
	1754.74	7.08696	2.66213
	1756.64	8.10468	2.84687
	1758.55	8.75633	2.95911
	1760.45	9.93681	3.15227
	1762.35	11.424	3.37994
	1764.25	12.9981	3.60528
	1766.15	14.683	3.83183
	1768.05	16.5787	4.0717
	1769.95	18.9247	4.35026
	1771.85	21.2599	4.61084
	1773.75	24.4963	4.94937
	1775.65	28.5159	5.34003
	1777.55	33.5738	5.79429
	1779.45	38.1897	6.17978
	1781.35	43.5335	6.59799
	1783.25	48.8059	6.98612
	1785.15	54.2899	7.36817
	1787.05	58.3205	7.63679
	1788.95	61.5805	7.84732
	1790.85	64.5941	8.03704
	1792.75	67.0764	8.19002
	1794.65	68.1695	8.25648
	1796.55	68.2059	8.25868
	1798.45	67.3589	8.20725
	1800.35	65.8163	8.11273
	1802.25	63.4277	7.96415
	1804.15	60.8571	7.80109
	1806.05	58.591	7.65447
	1807.95	55.8347	7.47226
	1809.85	52.7685	7.26419
	1811.75	49.1021	7.00729
	1813.65	44.5503	6.6746
	1815.56	40.3705	6.35378
	1817.46	36.4479	6.03721
	1819.36	32.7081	5.7191
	1821.26	29.1572	5.39974
	1823.16	25.9118	5.09036
	1825.06	22.7358	4.76821
	1826.96	19.5503	4.42157
	1828.86	16.5459	4.06766
	1830.76	14.3216	3.78439
	1832.66	12.5209	3.53849
	1834.56	10.8783	3.29822
	1836.46	9.38729	3.06387
	1838.36	7.83223	2.79861
	1840.26	6.67398	2.5834
	1842.16	5.61541	2.36968
	1844.06	4.993	2.2345
	1845.96	4.09532	2.02369
	1847.86	3.53043	1.87894
	1849.76	3.20591	1.7905
	1851.66	3.09551	1.75941
	1853.56	2.88229	1.69773
	1855.46	2.40532	1.55091
	1857.36	2.02724	1.42381
	1859.26	1.54696	1.24377
	1861.16	1.45803	1.20749
	1863.06	1.18177	1.08709
	1864.96	0.974239	0.987035
	1866.86	0.625522	0.790899
	1868.76	0.551245	0.742458
	1870.66	0.315977	0.562118
	1872.56	0.391269	0.625515
	1874.47	0.370311	0.608531
	1876.37	0.584526	0.764543
	1878.27	0.393035	0.626925
	1880.17	0.550487	0.741948
	1882.07	0.773542	0.879513
	1883.97	1.10725	1.05226
	1885.87	1.53218	1.23781
	1887.77	1.93039	1.38938
	1889.67	2.49793	1.58049
	1891.57	3.16042	1.77776
	1893.47	3.58852	1.89434
	1895.37	4.21335	2.05265
	1897.27	4.69718	2.1673
	1899.17	5.33003	2.30869
	1901.07	5.65392	2.3778
	1902.97	5.86152	2.42106
	1904.87	5.76575	2.4012
	1906.77	5.77467	2.40305
	1908.67	5.5508	2.35601
	1910.57	5.26869	2.29536
	1912.47	4.86662	2.20604
	1914.37	4.84031	2.20007
	1916.27	4.45949	2.11175
	1918.17	3.97134	1.99282
	1920.07	3.29623	1.81555
	1921.97	2.61998	1.61864
	1923.87	2.11671	1.45489
	1925.77	1.61041	1.26902
	1927.67	1.05608	1.02766
	1929.57	0.702739	0.838296
	1931.48	0.201547	0.44894
	1933.38	-0.26422	0.514024
	1935.28	-0.430868	0.656405
	1937.18	-0.641282	0.800801
	1939.08	-0.580025	0.761594
	1940.98	-0.687903	0.829399
	1942.88	-0.560216	0.748476
	1944.78	-0.612139	0.782393
	1946.68	-0.277961	0.52722
	1948.58	-0.0523626	0.228829
	1950.48	0.286303	0.535073
	1952.38	0.359249	0.599374
	1954.28	0.874336	0.935059
	1956.18	1.35044	1.16209
	1958.08	1.9353	1.39115
	1959.98	2.3573	1.53535
	1961.88	3.09583	1.7595
	1963.78	3.62714	1.90451
	1965.68	4.19874	2.04908
	1967.58	5.1462	2.26852
	1969.48	6.41538	2.53286
	1971.38	7.9602	2.82138
	1973.28	9.24101	3.0399
	1975.18	10.9562	3.31002
	1977.08	12.1625	3.48748
	1978.98	13.5433	3.68012
	1980.88	13.9929	3.74071
	1982.78	14.1699	3.7643
	1984.68	14.1949	3.76762
	1986.58	13.4045	3.66121
	1988.48	12.2314	3.49734
	1990.39	10.6363	3.26134
	1992.29	9.44019	3.07249
	1994.19	8.40632	2.89936
	1996.09	7.24935	2.69246
	1997.99	6.36892	2.52367
	1999.89	5.35568	2.31423
	2001.79	4.69125	2.16593
	2003.69	3.80487	1.95061
	2005.59	3.00016	1.7321
	2007.49	2.22132	1.49041
	2009.39	1.70797	1.30689
	2011.29	1.27765	1.13033
	2013.19	0.959648	0.979616
	2015.09	0.732847	0.856065
	2016.99	0.775471	0.880609
	2018.89	0.808082	0.898934
	2020.79	0.54744	0.739892
	2022.69	0.452501	0.672682
	2024.59	0.411451	0.641444
	2026.49	0.11798	0.343482
	2028.39	0.0377023	0.194171
	2030.29	0.0998499	0.31599
	2032.19	0.166956	0.408603
	2034.09	0.155459	0.394283
	2035.99	0.254227	0.50421
	2037.89	0.270101	0.519712
	2039.79	0.312912	0.559385
	2041.69	0.321659	0.56715
	2043.59	0.274898	0.524307
	2045.49	0.379813	0.616289
	2047.39	0.426298	0.652915
	2049.3	0.39139	0.625612
	2051.2	0.147864	0.384531
	2053.1	0.014405	0.120021
	2055	-0.052516	0.229164
	2056.9	-0.0174976	0.132279
	2058.8	0.0264529	0.162643
	2060.7	-0.0719592	0.268252
	2062.6	-0.203835	0.451481
	2064.5	-0.208987	0.457151
	2066.4	0.0594009	0.243723
	2068.3	0.373305	0.610987
	2070.2	0.432482	0.657633
	2072.1	0.480862	0.693442
	2074	0.462397	0.679998
	2075.9	0.502901	0.709155
	2077.8	0.581376	0.76248
	2079.7	0.454352	0.674057
	2081.6	0.38698	0.622077
	2083.5	0.361191	0.600992
	2085.4	0.44297	0.66556
	2087.3	0.465855	0.682536
	2089.2	0.184531	0.429571
	2091.1	0.0601785	0.245313
	2093	-0.0485971	0.220448
	2094.9	0.0790087	0.281085
	2096.8	0.13964	0.373684
	2098.7	0.453017	0.673066
	2100.6	0.391584	0.625767
	2102.5	0.231714	0.481367
	2104.4	0.118041	0.343571
	2106.31	0.305731	0.552929
	2108.21	0.389116	0.623791
	2110.11	0.345621	0.587896
	2112.01	0.396714	0.629853
	2113.91	0.486659	0.697609
	2115.81	0.421724	0.649403
	2117.71	0.341522	0.584398
	2119.61	0.324243	0.569424
	2121.51	0.298505	0.546356
	2123.41	0.387849	0.622775
	2125.31	0.435859	0.660196
	2127.21	0.322694	0.568062
	2129.11	0.14875	0.385681
	2131.01	-0.0350028	0.18709
	2132.91	-0.0733606	0.270852
	2134.81	-0.0744045	0.272772
	2136.71	0.181923	0.426525
	2138.61	0.33405	0.577971
	2140.51	0.310116	0.556881
	2142.41	0.0297469	0.172473
	2144.31	0.11687	0.341863
	2146.21	0.104204	0.322806
	2148.11	0.135733	0.36842
	2150.01	0.105718	0.325143
	2151.91	0.210792	0.459121
	2153.81	0.404048	0.635648
	2155.71	0.46683	0.683249
	2157.61	0.10267	0.320421
	2159.51	-0.169663	0.411902
	2161.41	-0.0242918	0.155858
	2163.31	0.115868	0.340394
	2165.22	0.0166436	0.12901
	2167.12	-0.0196249	0.140089
	2169.02	0.0405834	0.201453
	2170.92	0.254838	0.504815
	2172.82	0.116907	0.341917
	2174.72	0.00437165	0.0661184
	2176.62	0.00247804	0.0497799
	2178.52	0.0762498	0.276134
	2180.42	0.00481397	0.0693828
	2182.32	-0.0248783	0.157729
	2184.22	0.0588632	0.242617
	2186.12	0.0611266	0.247238
	2188.02	-0.0332817	0.182433
	2189.92	0.00484412	0.0695997
	2191.82	-0.0988222	0.31436
	2193.72	-0.0804333	0.283608
	2195.62	0.0734615	0.271038
	2197.52	0.0724854	0.269231
	2199.42	0.00169226	0.041137
	2201.32	-0.0433456	0.208196
	2203.22	0.00946185	0.097272
