Wavelength(nm)  Intensity
690.49	2644.00
690.67	2644.00
690.84	2648.00
691.02	2654.00
691.19	2647.00
691.36	2657.00
691.54	2653.00
691.71	2655.00
691.89	2659.00
692.06	2665.00
692.24	2668.00
692.41	2669.00
692.59	2671.00
692.76	2679.00
692.93	2680.00
693.11	2693.00
693.28	2701.00
693.46	2702.00
693.63	2711.00
693.80	2716.00
693.98	2718.00
694.15	2714.00
694.33	2703.00
694.50	2724.00
694.67	2728.00
694.85	2739.00
695.02	2738.00
695.20	2741.00
695.37	2745.00
695.54	2767.00
695.72	2760.00
695.89	2766.00
696.07	2777.00
696.24	2782.00
696.41	2797.00
696.59	2797.00
696.76	2816.00
696.93	2824.00
697.11	2825.00
697.28	2839.00
697.45	2857.00
697.63	2862.00
697.80	2870.00
697.97	2883.00
698.15	2889.00
698.32	2908.00
698.49	2919.00
698.67	2931.00
698.84	2936.00
699.01	2956.00
699.19	2963.00
699.36	2986.00
699.53	3006.00
699.70	3011.00
699.88	3027.00
700.05	3054.00
700.22	3060.00
700.40	3077.00
700.57	3093.00
700.74	3103.00
700.91	3117.00
701.09	3129.00
701.26	3134.00
701.43	3154.00
701.60	3177.00
701.78	3190.00
701.95	3208.00
702.12	3209.00
702.29	3227.00
702.47	3235.00
702.64	3261.00
702.81	3277.00
702.98	3279.00
703.16	3292.00
703.33	3306.00
703.50	3320.00
703.67	3336.00
703.85	3346.00
704.02	3364.00
704.19	3362.00
704.36	3382.00
704.53	3385.00
704.71	3405.00
704.88	3404.00
705.05	3412.00
705.22	3415.00
705.39	3422.00
705.56	3427.00
705.74	3446.00
705.91	3442.00
706.08	3458.00
706.25	3454.00
706.42	3463.00
706.59	3463.00
706.77	3479.00
706.94	3479.00
707.11	3477.00
707.28	3484.00
707.45	3450.00
707.62	3453.00
707.80	3442.00
707.97	3433.00
708.14	3437.00
708.31	3426.00
708.48	3449.00
708.65	3469.00
708.82	3500.00
708.99	3511.00
709.16	3491.00
709.34	3469.00
709.51	3449.00
709.68	3443.00
709.85	3446.00
710.02	3445.00
710.19	3471.00
710.36	3487.00
710.53	3493.00
710.70	3501.00
710.87	3550.00
711.04	3573.00
711.22	3605.00
711.39	3639.00
711.56	3686.00
711.73	3746.00
711.90	3787.00
712.07	3863.00
712.24	3913.00
712.41	3988.00
712.58	4047.00
712.75	4112.00
712.92	4154.00
713.09	4226.00
713.26	4303.00
713.43	4364.00
713.60	4416.00
713.77	4486.00
713.94	4538.00
714.11	4615.00
714.28	4675.00
714.45	4707.00
714.62	4730.00
714.79	4737.00
714.96	4751.00
715.13	4763.00
715.30	4765.00
715.47	4736.00
715.64	4714.00
715.81	4709.00
715.98	4664.00
716.15	4656.00
716.32	4628.00
716.49	4642.00
716.66	4613.00
716.83	4605.00
717.00	4576.00
717.17	4567.00
717.34	4568.00
717.51	4577.00
717.68	4610.00
717.85	4627.00
718.02	4660.00
718.19	4686.00
718.35	4705.00
718.52	4746.00
718.69	4781.00
718.86	4825.00
719.03	4868.00
719.20	4943.00
719.37	4990.00
719.54	5035.00
719.71	5044.00
719.88	5079.00
720.05	5148.00
720.21	5188.00
720.38	5217.00
720.55	5264.00
720.72	5321.00
720.89	5349.00
721.06	5381.00
721.23	5450.00
721.40	5491.00
721.56	5528.00
721.73	5569.00
721.90	5565.00
722.07	5571.00
722.24	5625.00
722.41	5675.00
722.58	5704.00
722.74	5741.00
722.91	5753.00
723.08	5804.00
723.25	5815.00
723.42	5845.00
723.59	5876.00
723.75	5866.00
723.92	5839.00
724.09	5801.00
724.26	5803.00
724.43	5807.00
724.59	5819.00
724.76	5835.00
724.93	5877.00
725.10	5877.00
725.27	5875.00
725.43	5829.00
725.60	5830.00
725.77	5801.00
725.94	5802.00
726.10	5800.00
726.27	5802.00
726.44	5775.00
726.61	5743.00
726.78	5730.00
726.94	5700.00
727.11	5671.00
727.28	5665.00
727.45	5615.00
727.61	5594.00
727.78	5541.00
727.95	5521.00
728.11	5458.00
728.28	5412.00
728.45	5370.00
728.62	5345.00
728.78	5332.00
728.95	5301.00
729.12	5301.00
729.29	5281.00
729.45	5245.00
729.62	5213.00
729.79	5215.00
729.95	5177.00
730.12	5154.00
730.29	5119.00
730.45	5067.00
730.62	5030.00
730.79	5010.00
730.95	4972.00
731.12	4929.00
731.29	4934.00
731.45	4863.00
731.62	4854.00
731.79	4835.00
731.95	4791.00
732.12	4765.00
732.29	4766.00
732.45	4719.00
732.62	4704.00
732.79	4679.00
732.95	4687.00
733.12	4666.00
733.28	4648.00
733.45	4617.00
733.62	4594.00
733.78	4584.00
733.95	4570.00
734.12	4568.00
734.28	4546.00
734.45	4499.00
734.61	4487.00
734.78	4489.00
734.95	4478.00
735.11	4463.00
735.28	4436.00
735.44	4443.00
735.61	4411.00
735.77	4428.00
735.94	4397.00
736.11	4387.00
736.27	4363.00
736.44	4365.00
736.60	4351.00
736.77	4320.00
736.93	4326.00
737.10	4331.00
737.26	4320.00
737.43	4305.00
737.60	4304.00
737.76	4306.00
737.93	4312.00
738.09	4274.00
738.26	4288.00
738.42	4294.00
738.59	4275.00
738.75	4253.00
738.92	4252.00
739.08	4268.00
739.25	4238.00
739.41	4241.00
739.58	4237.00
739.74	4212.00
739.91	4199.00
740.07	4201.00
740.24	4187.00
740.40	4169.00
740.57	4150.00
740.73	4145.00
740.90	4134.00
741.06	4127.00
741.23	4109.00
741.39	4094.00
741.55	4091.00
741.72	4085.00
741.88	4081.00
742.05	4084.00
742.21	4061.00
742.38	4051.00
742.54	4054.00
742.71	4040.00
742.87	4029.00
743.03	4033.00
743.20	4045.00
743.36	4030.00
743.53	4003.00
743.69	4020.00
743.86	4010.00
744.02	4001.00
744.18	4017.00
744.35	4026.00
744.51	4011.00
744.67	3988.00
744.84	3968.00
745.00	3956.00
745.17	3954.00
745.33	3956.00
745.49	3936.00
745.66	3921.00
745.82	3927.00
745.99	3919.00
746.15	3923.00
746.31	3940.00
746.48	3925.00
746.64	3902.00
746.80	3892.00
746.97	3885.00
747.13	3887.00
747.29	3890.00
747.46	3893.00
747.62	3887.00
747.78	3872.00
747.95	3872.00
748.11	3872.00
748.27	3866.00
748.44	3861.00
748.60	3854.00
748.76	3856.00
748.92	3851.00
749.09	3828.00
749.25	3816.00
749.41	3811.00
749.58	3801.00
749.74	3814.00
749.90	3798.00
750.07	3783.00
750.23	3790.00
750.39	3817.00
750.55	3796.00
750.72	3799.00
750.88	3773.00
751.04	3759.00
751.20	3768.00
751.37	3770.00
751.53	3763.00
751.69	3742.00
751.85	3734.00
752.02	3716.00
752.18	3731.00
752.34	3721.00
752.50	3720.00
752.67	3716.00
752.83	3725.00
752.99	3727.00
753.15	3723.00
753.31	3711.00
753.48	3695.00
753.64	3671.00
753.80	3670.00
753.96	3645.00
754.12	3652.00
754.29	3657.00
754.45	3650.00
754.61	3642.00
754.77	3619.00
754.93	3624.00
755.09	3611.00
755.26	3609.00
755.42	3630.00
755.58	3626.00
755.74	3623.00
755.90	3611.00
756.06	3612.00
756.23	3610.00
756.39	3598.00
756.55	3586.00
756.71	3589.00
756.87	3598.00
757.03	3577.00
757.19	3584.00
757.36	3563.00
757.52	3563.00
757.68	3564.00
757.84	3553.00
758.00	3540.00
758.16	3538.00
758.32	3522.00
758.48	3508.00
758.64	3511.00
758.80	3500.00
758.97	3517.00
759.13	3498.00
759.29	3504.00
759.45	3500.00
759.61	3494.00
759.77	3482.00
759.93	3472.00
760.09	3479.00
760.25	3468.00
760.41	3461.00
760.57	3473.00
760.73	3470.00
760.89	3451.00
761.05	3457.00
761.21	3455.00
761.38	3440.00
761.54	3445.00
761.70	3452.00
761.86	3447.00
762.02	3446.00
762.18	3435.00
762.34	3425.00
762.50	3440.00
762.66	3413.00
762.82	3399.00
762.98	3401.00
763.14	3413.00
763.30	3409.00
763.46	3443.00
763.62	3449.00
763.78	3407.00
763.94	3374.00
764.10	3356.00
764.26	3353.00
764.42	3370.00
764.58	3360.00
764.74	3356.00
764.90	3358.00
765.05	3348.00
765.21	3342.00
765.37	3350.00
765.53	3340.00
765.69	3326.00
765.85	3335.00
766.01	3323.00
766.17	3333.00
766.33	3332.00
766.49	3322.00
766.65	3332.00
766.81	3317.00
766.97	3325.00
767.13	3320.00
767.29	3302.00
767.44	3306.00
767.60	3300.00
767.76	3297.00
767.92	3283.00
768.08	3281.00
768.24	3289.00
768.40	3286.00
768.56	3262.00
768.72	3259.00
768.88	3256.00
769.03	3277.00
769.19	3261.00
769.35	3255.00
769.51	3248.00
769.67	3245.00
769.83	3250.00
769.99	3251.00
770.14	3242.00
770.30	3238.00
770.46	3251.00
770.62	3249.00
770.78	3253.00
770.94	3236.00
771.09	3232.00
771.25	3225.00
771.41	3222.00
771.57	3224.00
771.73	3219.00
771.89	3222.00
772.04	3215.00
772.20	3198.00
772.36	3211.00
772.52	3208.00
772.68	3211.00
772.83	3198.00
772.99	3191.00
773.15	3177.00
773.31	3192.00
773.46	3183.00
773.62	3168.00
773.78	3168.00
773.94	3170.00
774.10	3165.00
774.25	3163.00
774.41	3158.00
774.57	3166.00
774.73	3168.00
774.88	3162.00
775.04	3162.00
775.20	3150.00
775.36	3152.00
775.51	3145.00
775.67	3149.00
775.83	3144.00
775.98	3135.00
776.14	3142.00
776.30	3147.00
776.46	3143.00
776.61	3143.00
776.77	3148.00
776.93	3137.00
777.08	3116.00
777.24	3130.00
777.40	3115.00
777.56	3119.00
777.71	3118.00
777.87	3119.00
778.03	3111.00
778.18	3111.00
778.34	3104.00
778.50	3093.00
778.65	3078.00
778.81	3091.00
778.97	3080.00
779.12	3091.00
779.28	3089.00
779.44	3101.00
779.59	3083.00
779.75	3083.00
779.90	3085.00
780.06	3079.00
780.22	3072.00
780.37	3079.00
780.53	3071.00
780.69	3077.00
780.84	3072.00
781.00	3071.00
781.15	3075.00
781.31	3062.00
781.47	3056.00
781.62	3066.00
781.78	3043.00
781.93	3058.00
782.09	3055.00
782.25	3062.00
782.40	3053.00
782.56	3050.00
782.71	3047.00
782.87	3029.00
783.02	3047.00
783.18	3038.00
783.34	3028.00
783.49	3030.00
783.65	3029.00
783.80	3021.00
783.96	3020.00
784.11	3013.00
784.27	3025.00
784.42	3018.00
784.58	3024.00
784.73	3017.00
784.89	3016.00
785.05	3011.00
785.20	3019.00
785.36	3006.00
785.51	3017.00
785.67	3013.00
785.82	3020.00
785.98	3015.00
786.13	2999.00
786.29	2993.00
786.44	2995.00
786.60	2991.00
786.75	2996.00
786.91	2990.00
787.06	2988.00
787.21	2980.00
787.37	2978.00
787.52	2993.00
787.68	2984.00
787.83	2986.00
787.99	2981.00
788.14	2974.00
788.30	2960.00
788.45	2964.00
788.61	2968.00
788.76	2978.00
788.91	2979.00
789.07	2969.00
789.22	2970.00
789.38	2967.00
789.53	2962.00
789.69	2959.00
789.84	2963.00
789.99	2965.00
790.15	2949.00
790.30	2954.00
790.46	2958.00
790.61	2950.00
790.76	2956.00
790.92	2952.00
791.07	2944.00
791.23	2956.00
791.38	2940.00
791.53	2943.00
791.69	2934.00
791.84	2953.00
791.99	2944.00
792.15	2943.00
792.30	2942.00
792.46	2939.00
792.61	2932.00
792.76	2922.00
792.92	2921.00
793.07	2925.00
793.22	2925.00
793.38	2917.00
793.53	2927.00
793.68	2918.00
793.84	2921.00
793.99	2921.00
794.14	2920.00
794.30	2919.00
794.45	2916.00
794.60	2911.00
794.75	2924.00
794.91	2932.00
795.06	2905.00
795.21	2912.00
795.37	2905.00
795.52	2911.00
795.67	2911.00
795.83	2915.00
795.98	2907.00
796.13	2904.00
796.28	2896.00
796.44	2901.00
796.59	2899.00
796.74	2889.00
796.89	2891.00
797.05	2881.00
797.20	2879.00
797.35	2890.00
797.50	2878.00
797.66	2891.00
797.81	2875.00
797.96	2865.00
798.11	2872.00
798.27	2870.00
798.42	2858.00
798.57	2921.00
798.72	2878.00
798.87	2854.00
799.03	2873.00
799.18	2864.00
799.33	2873.00
799.48	2871.00
799.63	2869.00
799.79	2861.00
799.94	2871.00
800.09	2871.00
800.24	2868.00
800.39	2874.00
800.54	2882.00
800.70	2875.00
800.85	2865.00
801.00	2862.00
801.15	2861.00
801.30	2866.00
801.45	2870.00
801.61	2869.00
801.76	2854.00
801.91	2856.00
802.06	2852.00
802.21	2855.00
802.36	2845.00
802.51	2852.00
802.67	2850.00
802.82	2838.00
802.97	2841.00
803.12	2844.00
803.27	2845.00
803.42	2845.00
803.57	2846.00
803.72	2833.00
803.87	2838.00
804.02	2839.00
804.18	2842.00
804.33	2848.00
804.48	2846.00
804.63	2836.00
804.78	2840.00
804.93	2839.00
805.08	2847.00
805.23	2839.00
805.38	2833.00
805.53	2837.00
805.68	2826.00
805.83	2829.00
805.98	2827.00
806.13	2817.00
806.28	2829.00
806.44	2821.00
806.59	2832.00
806.74	2822.00
806.89	2821.00
807.04	2818.00
807.19	2818.00
807.34	2828.00
807.49	2811.00
807.64	2817.00
807.79	2828.00
807.94	2819.00
808.09	2814.00
808.24	2821.00
808.39	2829.00
808.54	2818.00
808.69	2821.00
808.84	2809.00
808.99	2814.00
809.14	2820.00
809.29	2819.00
809.44	2812.00
809.58	2810.00
809.73	2811.00
809.88	2812.00
810.03	2817.00
810.18	2817.00
810.33	2845.00
810.48	2837.00
810.63	2829.00
810.78	2823.00
810.93	2827.00
811.08	2819.00
811.23	2828.00
811.38	2859.00
811.53	2915.00
811.68	2881.00
811.83	2842.00
811.97	2831.00
812.12	2828.00
812.27	2823.00
812.42	2811.00
812.57	2808.00
812.72	2807.00
812.87	2807.00
813.02	2799.00
813.17	2798.00
813.31	2802.00
813.46	2798.00
813.61	2793.00
813.76	2806.00
813.91	2804.00
814.06	2796.00
814.21	2805.00
814.35	2798.00
814.50	2796.00
814.65	2805.00
814.80	2801.00
814.95	2801.00
815.10	2806.00
815.25	2803.00
815.39	2790.00
815.54	2791.00
815.69	2793.00
815.84	2790.00
815.99	2798.00
816.13	2793.00
816.28	2792.00
816.43	2795.00
816.58	2800.00
816.73	2790.00
816.87	2793.00
817.02	2787.00
817.17	2787.00
817.32	2794.00
817.47	2793.00
817.61	2783.00
817.76	2787.00
817.91	2779.00
818.06	2777.00
818.20	2779.00
818.35	2779.00
818.50	2784.00
818.65	2776.00
818.79	2786.00
818.94	2780.00
819.09	2777.00
819.24	2775.00
819.38	2782.00
819.53	2780.00
819.68	2784.00
819.83	2777.00
819.97	2774.00
820.12	2775.00
820.27	2774.00
820.41	2776.00
820.56	2782.00
820.71	2781.00
820.86	2773.00
821.00	2782.00
821.15	2780.00
821.30	2781.00
821.44	2771.00
821.59	2779.00
821.74	2766.00
821.88	2762.00
822.03	2768.00
822.18	2768.00
822.32	2764.00
822.47	2767.00
822.62	2770.00
822.76	2766.00
822.91	2762.00
823.06	2762.00
823.20	2754.00
823.35	2765.00
823.49	2755.00
823.64	2760.00
823.79	2765.00
823.93	2757.00
824.08	2757.00
824.23	2763.00
824.37	2765.00
824.52	2768.00
824.66	2761.00
824.81	2767.00
824.96	2764.00
825.10	2765.00
825.25	2764.00
825.39	2764.00
825.54	2762.00
825.69	2763.00
825.83	2761.00
825.98	2763.00
826.12	2756.00
826.27	2765.00
826.41	2772.00
826.56	2769.00
826.71	2769.00
826.85	2759.00
827.00	2765.00
827.14	2760.00
827.29	2756.00
827.43	2756.00
827.58	2751.00
827.72	2749.00
827.87	2742.00
828.01	2746.00
828.16	2742.00
828.30	2756.00
828.45	2749.00
828.59	2744.00
828.74	2756.00
828.89	2747.00
829.03	2762.00
829.18	2753.00
829.32	2749.00
829.46	2758.00
829.61	2757.00
829.75	2752.00
829.90	2758.00
830.04	2757.00
830.19	2759.00
830.33	2761.00
830.48	2761.00
830.62	2760.00
830.77	2756.00
830.91	2766.00
831.06	2756.00
831.20	2762.00
831.35	2756.00
831.49	2757.00
831.63	2755.00
831.78	2760.00
831.92	2757.00
832.07	2756.00
832.21	2761.00
832.36	2753.00
832.50	2758.00
832.64	2759.00
832.79	2755.00
832.93	2754.00
833.08	2753.00
833.22	2755.00
833.36	2757.00
833.51	2745.00
833.65	2743.00
833.80	2754.00
833.94	2750.00
834.08	2749.00
834.23	2748.00
834.37	2754.00
834.51	2751.00
834.66	2751.00
834.80	2749.00
834.95	2763.00
835.09	2761.00
835.23	2763.00
835.38	2765.00
835.52	2764.00
835.66	2767.00
835.81	2770.00
835.95	2763.00
836.09	2763.00
836.24	2770.00
836.38	2755.00
836.52	2761.00
836.67	2762.00
836.81	2768.00
836.95	2761.00
837.10	2760.00
837.24	2754.00
837.38	2758.00
837.52	2760.00
837.67	2752.00
837.81	2747.00
837.95	2757.00
838.10	2742.00
838.24	2745.00
838.38	2751.00
838.52	2740.00
838.67	2752.00
838.81	2745.00
838.95	2746.00
839.09	2755.00
839.24	2748.00
839.38	2747.00
839.52	2760.00
839.66	2756.00
839.81	2751.00
839.95	2753.00
840.09	2752.00
840.23	2749.00
840.38	2759.00
840.52	2759.00
840.66	2772.00
840.80	2787.00
840.94	2773.00
841.09	2767.00
841.23	2760.00
841.37	2756.00
841.51	2760.00
841.65	2761.00
841.80	2755.00
841.94	2749.00
842.08	2753.00
842.22	2754.00
842.36	2781.00
842.50	2790.00
842.65	2774.00
842.79	2762.00
842.93	2760.00
843.07	2749.00
843.21	2753.00
843.35	2756.00
843.50	2742.00
843.64	2736.00
843.78	2727.00
843.92	2740.00
844.06	2730.00
844.20	2742.00
844.34	2737.00
844.48	2736.00
844.63	2737.00
844.77	2733.00
844.91	2739.00
845.05	2749.00
845.19	2739.00
845.33	2741.00
845.47	2745.00
845.61	2743.00
845.75	2738.00
845.90	2749.00
846.04	2739.00
846.18	2729.00
846.32	2738.00
846.46	2729.00
846.60	2733.00
846.74	2723.00
846.88	2727.00
847.02	2726.00
847.16	2725.00
847.30	2728.00
847.44	2725.00
847.58	2721.00
847.72	2722.00
847.86	2735.00
848.00	2730.00
848.14	2728.00
848.28	2735.00
848.42	2733.00
848.56	2730.00
848.70	2727.00
848.84	2731.00
848.99	2724.00
849.13	2716.00
849.27	2719.00
849.41	2705.00
849.54	2715.00
849.68	2725.00
849.82	2723.00
849.96	2723.00
850.10	2720.00
850.24	2718.00
850.38	2705.00
850.52	2705.00
850.66	2707.00
850.80	2706.00
850.94	2698.00
851.08	2720.00
851.22	2704.00
851.36	2698.00
851.50	2428.00
851.64	2419.00
851.78	2419.00
851.92	2421.00
852.06	2631.00
852.20	2629.00
852.34	2633.00
852.48	2633.00
852.61	2640.00
852.75	2641.00
852.89	2692.00
853.03	2690.00
853.17	2684.00
853.31	2685.00
853.45	2695.00
853.59	2702.00
853.73	2422.00
853.87	2424.00
854.00	2422.00
854.14	2419.00
