Wavelength(nm)  Intensity
690.49	2666.00
690.67	2666.00
690.84	2668.00
691.02	2673.00
691.19	2665.00
691.36	2672.00
691.54	2668.00
691.71	2667.00
691.89	2669.00
692.06	2671.00
692.24	2672.00
692.41	2665.00
692.59	2673.00
692.76	2665.00
692.93	2666.00
693.11	2670.00
693.28	2669.00
693.46	2667.00
693.63	2676.00
693.80	2667.00
693.98	2675.00
694.15	2675.00
694.33	2666.00
694.50	2672.00
694.67	2673.00
694.85	2677.00
695.02	2679.00
695.20	2671.00
695.37	2668.00
695.54	2671.00
695.72	2666.00
695.89	2670.00
696.07	2676.00
696.24	2673.00
696.41	2675.00
696.59	2672.00
696.76	2668.00
696.93	2678.00
697.11	2668.00
697.28	2671.00
697.45	2666.00
697.63	2674.00
697.80	2673.00
697.97	2673.00
698.15	2673.00
698.32	2674.00
698.49	2668.00
698.67	2680.00
698.84	2663.00
699.01	2664.00
699.19	2668.00
699.36	2668.00
699.53	2684.00
699.70	2667.00
699.88	2682.00
700.05	2672.00
700.22	2676.00
700.40	2677.00
700.57	2672.00
700.74	2679.00
700.91	2673.00
701.09	2686.00
701.26	2678.00
701.43	2680.00
701.60	2675.00
701.78	2676.00
701.95	2679.00
702.12	2672.00
702.29	2675.00
702.47	2674.00
702.64	2678.00
702.81	2684.00
702.98	2674.00
703.16	2671.00
703.33	2670.00
703.50	2686.00
703.67	2678.00
703.85	2679.00
704.02	2685.00
704.19	2679.00
704.36	2691.00
704.53	2685.00
704.71	2689.00
704.88	2690.00
705.05	2683.00
705.22	2683.00
705.39	2684.00
705.56	2682.00
705.74	2679.00
705.91	2693.00
706.08	2685.00
706.25	2689.00
706.42	2690.00
706.59	2690.00
706.77	2687.00
706.94	2688.00
707.11	2694.00
707.28	2690.00
707.45	2691.00
707.62	2688.00
707.80	2680.00
707.97	2694.00
708.14	2690.00
708.31	2692.00
708.48	2690.00
708.65	2696.00
708.82	2701.00
708.99	2704.00
709.16	2696.00
709.34	2692.00
709.51	2690.00
709.68	2693.00
709.85	2694.00
710.02	2691.00
710.19	2704.00
710.36	2698.00
710.53	2689.00
710.70	2694.00
710.87	2697.00
711.04	2696.00
711.22	2694.00
711.39	2703.00
711.56	2694.00
711.73	2700.00
711.90	2703.00
712.07	2701.00
712.24	2699.00
712.41	2702.00
712.58	2693.00
712.75	2700.00
712.92	2706.00
713.09	2698.00
713.26	2701.00
713.43	2701.00
713.60	2704.00
713.77	2699.00
713.94	2713.00
714.11	2705.00
714.28	2713.00
714.45	2707.00
714.62	2707.00
714.79	2706.00
714.96	2708.00
715.13	2707.00
715.30	2708.00
715.47	2704.00
715.64	2706.00
715.81	2703.00
715.98	2710.00
716.15	2711.00
716.32	2713.00
716.49	2717.00
716.66	2708.00
716.83	2719.00
717.00	2727.00
717.17	2707.00
717.34	2709.00
717.51	2724.00
717.68	2726.00
717.85	2708.00
718.02	2718.00
718.19	2718.00
718.35	2728.00
718.52	2724.00
718.69	2714.00
718.86	2726.00
719.03	2723.00
719.20	2729.00
719.37	2726.00
719.54	2720.00
719.71	2715.00
719.88	2725.00
720.05	2720.00
720.21	2725.00
720.38	2720.00
720.55	2726.00
720.72	2734.00
720.89	2727.00
721.06	2719.00
721.23	2728.00
721.40	2733.00
721.56	2720.00
721.73	2739.00
721.90	2723.00
722.07	2734.00
722.24	2745.00
722.41	2738.00
722.58	2745.00
722.74	2736.00
722.91	2736.00
723.08	2740.00
723.25	2740.00
723.42	2754.00
723.59	2751.00
723.75	2746.00
723.92	2734.00
724.09	2740.00
724.26	2750.00
724.43	2746.00
724.59	2750.00
724.76	2749.00
724.93	2761.00
725.10	2743.00
725.27	2746.00
725.43	2747.00
725.60	2752.00
725.77	2752.00
725.94	2757.00
726.10	2755.00
726.27	2753.00
726.44	2758.00
726.61	2750.00
726.78	2751.00
726.94	2749.00
727.11	2750.00
727.28	2755.00
727.45	2760.00
727.61	2752.00
727.78	2756.00
727.95	2760.00
728.11	2760.00
728.28	2760.00
728.45	2757.00
728.62	2748.00
728.78	2757.00
728.95	2753.00
729.12	2756.00
729.29	2748.00
729.45	2751.00
729.62	2769.00
729.79	2757.00
729.95	2753.00
730.12	2764.00
730.29	2752.00
730.45	2770.00
730.62	2764.00
730.79	2768.00
730.95	2755.00
731.12	2763.00
731.29	2767.00
731.45	2764.00
731.62	2771.00
731.79	2769.00
731.95	2772.00
732.12	2778.00
732.29	2762.00
732.45	2772.00
732.62	2768.00
732.79	2772.00
732.95	2773.00
733.12	2764.00
733.28	2780.00
733.45	2769.00
733.62	2787.00
733.78	2774.00
733.95	2783.00
734.12	2770.00
734.28	2782.00
734.45	2770.00
734.61	2770.00
734.78	2779.00
734.95	2788.00
735.11	2786.00
735.28	2787.00
735.44	2790.00
735.61	2784.00
735.77	2796.00
735.94	2789.00
736.11	2797.00
736.27	2786.00
736.44	2788.00
736.60	2795.00
736.77	2791.00
736.93	2794.00
737.10	2808.00
737.26	2791.00
737.43	2796.00
737.60	2788.00
737.76	2802.00
737.93	2798.00
738.09	2798.00
738.26	2805.00
738.42	2801.00
738.59	2798.00
738.75	2809.00
738.92	2810.00
739.08	2799.00
739.25	2792.00
739.41	2802.00
739.58	2801.00
739.74	2809.00
739.91	2800.00
740.07	2812.00
740.24	2811.00
740.40	2799.00
740.57	2800.00
740.73	2812.00
740.90	2796.00
741.06	2802.00
741.23	2792.00
741.39	2801.00
741.55	2804.00
741.72	2802.00
741.88	2795.00
742.05	2804.00
742.21	2794.00
742.38	2802.00
742.54	2794.00
742.71	2797.00
742.87	2798.00
743.03	2793.00
743.20	2798.00
743.36	2792.00
743.53	2793.00
743.69	2795.00
743.86	2797.00
744.02	2785.00
744.18	2796.00
744.35	2797.00
744.51	2795.00
744.67	2790.00
744.84	2791.00
745.00	2793.00
745.17	2797.00
745.33	2798.00
745.49	2794.00
745.66	2781.00
745.82	2801.00
745.99	2784.00
746.15	2787.00
746.31	2785.00
746.48	2796.00
746.64	2784.00
746.80	2787.00
746.97	2790.00
747.13	2790.00
747.29	2778.00
747.46	2780.00
747.62	2786.00
747.78	2787.00
747.95	2781.00
748.11	2783.00
748.27	2785.00
748.44	2790.00
748.60	2790.00
748.76	2791.00
748.92	2796.00
749.09	2786.00
749.25	2778.00
749.41	2781.00
749.58	2781.00
749.74	2782.00
749.90	2783.00
750.07	2782.00
750.23	2780.00
750.39	2774.00
750.55	2785.00
750.72	2782.00
750.88	2783.00
751.04	2778.00
751.20	2783.00
751.37	2769.00
751.53	2789.00
751.69	2782.00
751.85	2772.00
752.02	2775.00
752.18	2788.00
752.34	2786.00
752.50	2780.00
752.67	2783.00
752.83	2780.00
752.99	2779.00
753.15	2781.00
753.31	2775.00
753.48	2777.00
753.64	2775.00
753.80	2781.00
753.96	2767.00
754.12	2764.00
754.29	2765.00
754.45	2770.00
754.61	2770.00
754.77	2765.00
754.93	2756.00
755.09	2775.00
755.26	2768.00
755.42	2774.00
755.58	2772.00
755.74	2774.00
755.90	2765.00
756.06	2769.00
756.23	2761.00
756.39	2767.00
756.55	2767.00
756.71	2768.00
756.87	2771.00
757.03	2761.00
757.19	2757.00
757.36	2766.00
757.52	2766.00
757.68	2769.00
757.84	2777.00
758.00	2763.00
758.16	2769.00
758.32	2761.00
758.48	2767.00
758.64	2756.00
758.80	2764.00
758.97	2770.00
759.13	2768.00
759.29	2759.00
759.45	2764.00
759.61	2762.00
759.77	2759.00
759.93	2759.00
760.09	2768.00
760.25	2755.00
760.41	2751.00
760.57	2777.00
760.73	2760.00
760.89	2761.00
761.05	2749.00
761.21	2756.00
761.38	2751.00
761.54	2763.00
761.70	2767.00
761.86	2763.00
762.02	2753.00
762.18	2754.00
762.34	2757.00
762.50	2770.00
762.66	2753.00
762.82	2752.00
762.98	2738.00
763.14	2757.00
763.30	2759.00
763.46	2769.00
763.62	2779.00
763.78	2762.00
763.94	2752.00
764.10	2739.00
764.26	2746.00
764.42	2751.00
764.58	2750.00
764.74	2748.00
764.90	2749.00
765.05	2751.00
765.21	2737.00
765.37	2747.00
765.53	2759.00
765.69	2741.00
765.85	2749.00
766.01	2743.00
766.17	2740.00
766.33	2748.00
766.49	2748.00
766.65	2754.00
766.81	2747.00
766.97	2734.00
767.13	2736.00
767.29	2737.00
767.44	2738.00
767.60	2743.00
767.76	2743.00
767.92	2734.00
768.08	2742.00
768.24	2733.00
768.40	2740.00
768.56	2732.00
768.72	2735.00
768.88	2746.00
769.03	2741.00
769.19	2734.00
769.35	2739.00
769.51	2733.00
769.67	2737.00
769.83	2741.00
769.99	2733.00
770.14	2731.00
770.30	2731.00
770.46	2726.00
770.62	2733.00
770.78	2736.00
770.94	2732.00
771.09	2727.00
771.25	2727.00
771.41	2731.00
771.57	2728.00
771.73	2730.00
771.89	2734.00
772.04	2727.00
772.20	2731.00
772.36	2732.00
772.52	2736.00
772.68	2727.00
772.83	2724.00
772.99	2716.00
773.15	2725.00
773.31	2722.00
773.46	2720.00
773.62	2725.00
773.78	2717.00
773.94	2717.00
774.10	2724.00
774.25	2718.00
774.41	2715.00
774.57	2718.00
774.73	2721.00
774.88	2709.00
775.04	2713.00
775.20	2721.00
775.36	2708.00
775.51	2710.00
775.67	2719.00
775.83	2724.00
775.98	2720.00
776.14	2726.00
776.30	2721.00
776.46	2715.00
776.61	2722.00
776.77	2718.00
776.93	2720.00
777.08	2708.00
777.24	2717.00
777.40	2712.00
777.56	2713.00
777.71	2710.00
777.87	2715.00
778.03	2703.00
778.18	2712.00
778.34	2703.00
778.50	2705.00
778.65	2705.00
778.81	2706.00
778.97	2704.00
779.12	2706.00
779.28	2706.00
779.44	2716.00
779.59	2714.00
779.75	2699.00
779.90	2707.00
780.06	2710.00
780.22	2724.00
780.37	2719.00
780.53	2707.00
780.69	2705.00
780.84	2702.00
781.00	2705.00
781.15	2697.00
781.31	2695.00
781.47	2699.00
781.62	2706.00
781.78	2703.00
781.93	2689.00
782.09	2704.00
782.25	2692.00
782.40	2689.00
782.56	2697.00
782.71	2704.00
782.87	2701.00
783.02	2699.00
783.18	2702.00
783.34	2703.00
783.49	2696.00
783.65	2706.00
783.80	2692.00
783.96	2695.00
784.11	2699.00
784.27	2704.00
784.42	2700.00
784.58	2702.00
784.73	2689.00
784.89	2698.00
785.05	2690.00
785.20	2701.00
785.36	2686.00
785.51	2699.00
785.67	2696.00
785.82	2697.00
785.98	2707.00
786.13	2699.00
786.29	2685.00
786.44	2696.00
786.60	2691.00
786.75	2689.00
786.91	2689.00
787.06	2684.00
787.21	2699.00
787.37	2696.00
787.52	2693.00
787.68	2695.00
787.83	2686.00
787.99	2683.00
788.14	2694.00
788.30	2685.00
788.45	2687.00
788.61	2692.00
788.76	2692.00
788.91	2692.00
789.07	2686.00
789.22	2685.00
789.38	2687.00
789.53	2689.00
789.69	2688.00
789.84	2701.00
789.99	2685.00
790.15	2685.00
790.30	2695.00
790.46	2688.00
790.61	2690.00
790.76	2684.00
790.92	2692.00
791.07	2685.00
791.23	2681.00
791.38	2678.00
791.53	2687.00
791.69	2680.00
791.84	2695.00
791.99	2677.00
792.15	2676.00
792.30	2677.00
792.46	2692.00
792.61	2684.00
792.76	2673.00
792.92	2675.00
793.07	2679.00
793.22	2675.00
793.38	2676.00
793.53	2688.00
793.68	2683.00
793.84	2671.00
793.99	2671.00
794.14	2683.00
794.30	2678.00
794.45	2677.00
794.60	2684.00
794.75	2679.00
794.91	2689.00
795.06	2679.00
795.21	2683.00
795.37	2678.00
795.52	2679.00
795.67	2666.00
795.83	2684.00
795.98	2672.00
796.13	2669.00
796.28	2670.00
796.44	2675.00
796.59	2670.00
796.74	2668.00
796.89	2679.00
797.05	2668.00
797.20	2662.00
797.35	2662.00
797.50	2664.00
797.66	2674.00
797.81	2668.00
797.96	2671.00
798.11	2668.00
798.27	2669.00
798.42	2650.00
798.57	2772.00
798.72	2674.00
798.87	2663.00
799.03	2664.00
799.18	2670.00
799.33	2659.00
799.48	2665.00
799.63	2673.00
799.79	2670.00
799.94	2662.00
800.09	2662.00
800.24	2666.00
800.39	2674.00
800.54	2685.00
800.70	2670.00
800.85	2670.00
801.00	2671.00
801.15	2664.00
801.30	2671.00
801.45	2675.00
801.61	2662.00
801.76	2663.00
801.91	2664.00
802.06	2665.00
802.21	2659.00
802.36	2648.00
802.51	2666.00
802.67	2664.00
802.82	2667.00
802.97	2657.00
803.12	2667.00
803.27	2666.00
803.42	2667.00
803.57	2669.00
803.72	2656.00
803.87	2659.00
804.02	2672.00
804.18	2659.00
804.33	2668.00
804.48	2671.00
804.63	2657.00
804.78	2662.00
804.93	2653.00
805.08	2661.00
805.23	2660.00
805.38	2657.00
805.53	2666.00
805.68	2656.00
805.83	2649.00
805.98	2652.00
806.13	2654.00
806.28	2658.00
806.44	2647.00
806.59	2658.00
806.74	2662.00
806.89	2653.00
807.04	2660.00
807.19	2652.00
807.34	2651.00
807.49	2650.00
807.64	2662.00
807.79	2657.00
807.94	2650.00
808.09	2657.00
808.24	2654.00
808.39	2657.00
808.54	2651.00
808.69	2649.00
808.84	2651.00
808.99	2653.00
809.14	2655.00
809.29	2661.00
809.44	2662.00
809.58	2657.00
809.73	2649.00
809.88	2649.00
810.03	2654.00
810.18	2657.00
810.33	2672.00
810.48	2658.00
810.63	2663.00
810.78	2656.00
810.93	2665.00
811.08	2660.00
811.23	2657.00
811.38	2670.00
811.53	2711.00
811.68	2694.00
811.83	2672.00
811.97	2672.00
812.12	2664.00
812.27	2664.00
812.42	2652.00
812.57	2652.00
812.72	2649.00
812.87	2642.00
813.02	2639.00
813.17	2646.00
813.31	2653.00
813.46	2648.00
813.61	2648.00
813.76	2651.00
813.91	2646.00
814.06	2645.00
814.21	2652.00
814.35	2641.00
814.50	2647.00
814.65	2652.00
814.80	2645.00
814.95	2648.00
815.10	2654.00
815.25	2649.00
815.39	2640.00
815.54	2645.00
815.69	2643.00
815.84	2642.00
815.99	2643.00
816.13	2647.00
816.28	2645.00
816.43	2648.00
816.58	2642.00
816.73	2644.00
816.87	2639.00
817.02	2634.00
817.17	2644.00
817.32	2648.00
817.47	2647.00
817.61	2640.00
817.76	2647.00
817.91	2636.00
818.06	2634.00
818.20	2641.00
818.35	2648.00
818.50	2642.00
818.65	2644.00
818.79	2649.00
818.94	2647.00
819.09	2633.00
819.24	2639.00
819.38	2636.00
819.53	2644.00
819.68	2644.00
819.83	2633.00
819.97	2638.00
820.12	2642.00
820.27	2638.00
820.41	2641.00
820.56	2639.00
820.71	2640.00
820.86	2639.00
821.00	2648.00
821.15	2639.00
821.30	2633.00
821.44	2641.00
821.59	2637.00
821.74	2637.00
821.88	2633.00
822.03	2634.00
822.18	2637.00
822.32	2624.00
822.47	2633.00
822.62	2630.00
822.76	2630.00
822.91	2630.00
823.06	2621.00
823.20	2624.00
823.35	2631.00
823.49	2626.00
823.64	2626.00
823.79	2630.00
823.93	2621.00
824.08	2630.00
824.23	2625.00
824.37	2634.00
824.52	2625.00
824.66	2629.00
824.81	2635.00
824.96	2628.00
825.10	2627.00
825.25	2629.00
825.39	2630.00
825.54	2626.00
825.69	2624.00
825.83	2628.00
825.98	2628.00
826.12	2631.00
826.27	2639.00
826.41	2641.00
826.56	2630.00
826.71	2631.00
826.85	2641.00
827.00	2627.00
827.14	2618.00
827.29	2626.00
827.43	2627.00
827.58	2625.00
827.72	2628.00
827.87	2617.00
828.01	2623.00
828.16	2615.00
828.30	2622.00
828.45	2624.00
828.59	2623.00
828.74	2620.00
828.89	2618.00
829.03	2643.00
829.18	2631.00
829.32	2628.00
829.46	2627.00
829.61	2619.00
829.75	2628.00
829.90	2637.00
830.04	2624.00
830.19	2625.00
830.33	2622.00
830.48	2627.00
830.62	2616.00
830.77	2630.00
830.91	2632.00
831.06	2631.00
831.20	2625.00
831.35	2623.00
831.49	2628.00
831.63	2621.00
831.78	2632.00
831.92	2625.00
832.07	2624.00
832.21	2629.00
832.36	2631.00
832.50	2624.00
832.64	2625.00
832.79	2624.00
832.93	2615.00
833.08	2629.00
833.22	2620.00
833.36	2629.00
833.51	2617.00
833.65	2620.00
833.80	2629.00
833.94	2615.00
834.08	2621.00
834.23	2632.00
834.37	2627.00
834.51	2624.00
834.66	2622.00
834.80	2621.00
834.95	2621.00
835.09	2626.00
835.23	2626.00
835.38	2630.00
835.52	2630.00
835.66	2623.00
835.81	2617.00
835.95	2628.00
836.09	2628.00
836.24	2638.00
836.38	2629.00
836.52	2623.00
836.67	2619.00
836.81	2637.00
836.95	2628.00
837.10	2629.00
837.24	2626.00
837.38	2626.00
837.52	2622.00
837.67	2619.00
837.81	2617.00
837.95	2621.00
838.10	2618.00
838.24	2616.00
838.38	2617.00
838.52	2622.00
838.67	2617.00
838.81	2614.00
838.95	2615.00
839.09	2619.00
839.24	2623.00
839.38	2625.00
839.52	2620.00
839.66	2627.00
839.81	2621.00
839.95	2627.00
840.09	2628.00
840.23	2625.00
840.38	2635.00
840.52	2630.00
840.66	2631.00
840.80	2640.00
840.94	2638.00
841.09	2636.00
841.23	2622.00
841.37	2629.00
841.51	2633.00
841.65	2628.00
841.80	2623.00
841.94	2621.00
842.08	2626.00
842.22	2629.00
842.36	2649.00
842.50	2661.00
842.65	2646.00
842.79	2636.00
842.93	2628.00
843.07	2617.00
843.21	2627.00
843.35	2625.00
843.50	2611.00
843.64	2614.00
843.78	2613.00
843.92	2611.00
844.06	2614.00
844.20	2617.00
844.34	2618.00
844.48	2609.00
844.63	2621.00
844.77	2616.00
844.91	2612.00
845.05	2619.00
845.19	2616.00
845.33	2623.00
845.47	2628.00
845.61	2619.00
845.75	2626.00
845.90	2614.00
846.04	2618.00
846.18	2617.00
846.32	2608.00
846.46	2608.00
846.60	2613.00
846.74	2610.00
846.88	2608.00
847.02	2608.00
847.16	2608.00
847.30	2607.00
847.44	2603.00
847.58	2597.00
847.72	2614.00
847.86	2619.00
848.00	2608.00
848.14	2607.00
848.28	2616.00
848.42	2611.00
848.56	2614.00
848.70	2612.00
848.84	2612.00
848.99	2608.00
849.13	2611.00
849.27	2609.00
849.41	2596.00
849.54	2604.00
849.68	2603.00
849.82	2615.00
849.96	2603.00
850.10	2601.00
850.24	2606.00
850.38	2602.00
850.52	2593.00
850.66	2597.00
850.80	2594.00
850.94	2596.00
851.08	2609.00
851.22	2595.00
851.36	2596.00
851.50	2443.00
851.64	2425.00
851.78	2428.00
851.92	2433.00
852.06	2665.00
852.20	2665.00
852.34	2661.00
852.48	2667.00
852.61	2672.00
852.75	2664.00
852.89	2596.00
853.03	2596.00
853.17	2585.00
853.31	2590.00
853.45	2594.00
853.59	2601.00
853.73	2435.00
853.87	2439.00
854.00	2430.00
854.14	2430.00
