Wavelength(nm)  Intensity
690.49	8144.00
690.67	7863.00
690.84	7949.00
691.02	8026.00
691.19	7747.00
691.36	7839.00
691.54	8215.00
691.71	8072.00
691.89	7621.00
692.06	7662.00
692.24	8359.00
692.41	7659.00
692.59	8475.00
692.76	7938.00
692.93	7903.00
693.11	8082.00
693.28	8097.00
693.46	8261.00
693.63	8180.00
693.80	8111.00
693.98	8279.00
694.15	8108.00
694.33	7700.00
694.50	8271.00
694.67	8459.00
694.85	8558.00
695.02	8272.00
695.20	8076.00
695.37	7923.00
695.54	8933.00
695.72	8385.00
695.89	8652.00
696.07	9138.00
696.24	9170.00
696.41	9362.00
696.59	8704.00
696.76	9253.00
696.93	9660.00
697.11	8307.00
697.28	9253.00
697.45	9319.00
697.63	9074.00
697.80	9127.00
697.97	9360.00
698.15	8683.00
698.32	8831.00
698.49	8501.00
698.67	8792.00
698.84	8349.00
699.01	8266.00
699.19	9105.00
699.36	8583.00
699.53	9589.00
699.70	8609.00
699.88	9167.00
700.05	9364.00
700.22	9273.00
700.40	9395.00
700.57	9027.00
700.74	8893.00
700.91	9091.00
701.09	10011.00
701.26	9148.00
701.43	9762.00
701.60	9034.00
701.78	9356.00
701.95	10051.00
702.12	8859.00
702.29	9025.00
702.47	9199.00
702.64	9753.00
702.81	9775.00
702.98	9531.00
703.16	9059.00
703.33	9038.00
703.50	10493.00
703.67	9178.00
703.85	9681.00
704.02	9442.00
704.19	9275.00
704.36	9819.00
704.53	9508.00
704.71	10116.00
704.88	9804.00
705.05	8883.00
705.22	8893.00
705.39	8958.00
705.56	8617.00
705.74	8688.00
705.91	8924.00
706.08	7990.00
706.25	8606.00
706.42	8058.00
706.59	8270.00
706.77	7754.00
706.94	7538.00
707.11	7807.00
707.28	7604.00
707.45	7757.00
707.62	7453.00
707.80	7115.00
707.97	7984.00
708.14	7393.00
708.31	7288.00
708.48	7432.00
708.65	7280.00
708.82	7679.00
708.99	8137.00
709.16	7417.00
709.34	7492.00
709.51	7254.00
709.68	7406.00
709.85	7820.00
710.02	7112.00
710.19	8358.00
710.36	7991.00
710.53	7215.00
710.70	7375.00
710.87	7248.00
711.04	7251.00
711.22	7420.00
711.39	7596.00
711.56	7293.00
711.73	7296.00
711.90	7421.00
712.07	7637.00
712.24	7409.00
712.41	7684.00
712.58	7159.00
712.75	7770.00
712.92	7577.00
713.09	7604.00
713.26	7196.00
713.43	7376.00
713.60	7917.00
713.77	7517.00
713.94	7932.00
714.11	7215.00
714.28	7990.00
714.45	7278.00
714.62	7295.00
714.79	7375.00
714.96	6846.00
715.13	7429.00
715.30	7922.00
715.47	6823.00
715.64	7837.00
715.81	7322.00
715.98	7467.00
716.15	7272.00
716.32	7003.00
716.49	7565.00
716.66	7009.00
716.83	7619.00
717.00	7884.00
717.17	6988.00
717.34	7337.00
717.51	7671.00
717.68	8087.00
717.85	7497.00
718.02	7626.00
718.19	7247.00
718.35	7279.00
718.52	7571.00
718.69	6909.00
718.86	7699.00
719.03	7652.00
719.20	7575.00
719.37	7463.00
719.54	7564.00
719.71	7184.00
719.88	7583.00
720.05	7562.00
720.21	7151.00
720.38	7442.00
720.55	7534.00
720.72	7302.00
720.89	7477.00
721.06	7506.00
721.23	7402.00
721.40	7776.00
721.56	6801.00
721.73	7594.00
721.90	7111.00
722.07	7184.00
722.24	8080.00
722.41	7356.00
722.58	7637.00
722.74	6783.00
722.91	7141.00
723.08	7204.00
723.25	7556.00
723.42	7791.00
723.59	7460.00
723.75	7235.00
723.92	7218.00
724.09	6804.00
724.26	7442.00
724.43	6863.00
724.59	7237.00
724.76	7623.00
724.93	7972.00
725.10	7066.00
725.27	7370.00
725.43	7197.00
725.60	7287.00
725.77	7504.00
725.94	7732.00
726.10	7364.00
726.27	7880.00
726.44	7020.00
726.61	7952.00
726.78	7037.00
726.94	6871.00
727.11	7336.00
727.28	7009.00
727.45	7981.00
727.61	7338.00
727.78	7352.00
727.95	7990.00
728.11	7676.00
728.28	7677.00
728.45	7330.00
728.62	6999.00
728.78	7564.00
728.95	7615.00
729.12	7478.00
729.29	7169.00
729.45	7036.00
729.62	7767.00
729.79	7230.00
729.95	7124.00
730.12	7545.00
730.29	7580.00
730.45	7965.00
730.62	7249.00
730.79	7906.00
730.95	7134.00
731.12	7513.00
731.29	7827.00
731.45	7210.00
731.62	7920.00
731.79	8110.00
731.95	7753.00
732.12	7625.00
732.29	7596.00
732.45	8348.00
732.62	7387.00
732.79	7673.00
732.95	7281.00
733.12	7589.00
733.28	8318.00
733.45	7799.00
733.62	8105.00
733.78	7393.00
733.95	8112.00
734.12	7730.00
734.28	7519.00
734.45	7369.00
734.61	6912.00
734.78	7497.00
734.95	7762.00
735.11	7555.00
735.28	7675.00
735.44	7831.00
735.61	8184.00
735.77	8365.00
735.94	8440.00
736.11	7832.00
736.27	7556.00
736.44	7803.00
736.60	7670.00
736.77	7454.00
736.93	7694.00
737.10	8973.00
737.26	7648.00
737.43	7494.00
737.60	7236.00
737.76	7678.00
737.93	7156.00
738.09	7554.00
738.26	7433.00
738.42	7291.00
738.59	7413.00
738.75	8048.00
738.92	7965.00
739.08	7431.00
739.25	6991.00
739.41	7396.00
739.58	7316.00
739.74	8085.00
739.91	7555.00
740.07	7812.00
740.24	7844.00
740.40	7233.00
740.57	7586.00
740.73	8325.00
740.90	6924.00
741.06	7165.00
741.23	6921.00
741.39	8055.00
741.55	7424.00
741.72	7463.00
741.88	7037.00
742.05	7583.00
742.21	7015.00
742.38	6982.00
742.54	6807.00
742.71	7092.00
742.87	7212.00
743.03	6928.00
743.20	7811.00
743.36	6793.00
743.53	6960.00
743.69	7328.00
743.86	7281.00
744.02	6649.00
744.18	6919.00
744.35	8128.00
744.51	7232.00
744.67	7025.00
744.84	6823.00
745.00	7708.00
745.17	7350.00
745.33	7742.00
745.49	7918.00
745.66	7066.00
745.82	8442.00
745.99	7077.00
746.15	7401.00
746.31	7533.00
746.48	7847.00
746.64	7267.00
746.80	7399.00
746.97	6869.00
747.13	7317.00
747.29	6424.00
747.46	6874.00
747.62	7422.00
747.78	6881.00
747.95	6918.00
748.11	7065.00
748.27	7472.00
748.44	7424.00
748.60	7350.00
748.76	7546.00
748.92	7542.00
749.09	7409.00
749.25	7158.00
749.41	6761.00
749.58	7259.00
749.74	7477.00
749.90	6746.00
750.07	6786.00
750.23	6938.00
750.39	6709.00
750.55	7784.00
750.72	6982.00
750.88	7120.00
751.04	7093.00
751.20	7752.00
751.37	6327.00
751.53	7608.00
751.69	6755.00
751.85	7176.00
752.02	7009.00
752.18	7179.00
752.34	7952.00
752.50	7453.00
752.67	7282.00
752.83	6696.00
752.99	7224.00
753.15	7543.00
753.31	7459.00
753.48	7433.00
753.64	6760.00
753.80	6959.00
753.96	7074.00
754.12	6847.00
754.29	7099.00
754.45	7234.00
754.61	7071.00
754.77	6354.00
754.93	6268.00
755.09	6963.00
755.26	7145.00
755.42	7393.00
755.58	7284.00
755.74	7293.00
755.90	7072.00
756.06	6951.00
756.23	6903.00
756.39	6884.00
756.55	6616.00
756.71	6966.00
756.87	7052.00
757.03	6999.00
757.19	6621.00
757.36	6996.00
757.52	7297.00
757.68	6983.00
757.84	7632.00
758.00	7186.00
758.16	7556.00
758.32	6533.00
758.48	7093.00
758.64	6513.00
758.80	6857.00
758.97	7438.00
759.13	6856.00
759.29	6654.00
759.45	7055.00
759.61	6928.00
759.77	6897.00
759.93	6855.00
760.09	7441.00
760.25	7050.00
760.41	6619.00
760.57	9294.00
760.73	6838.00
760.89	7092.00
761.05	6589.00
761.21	7124.00
761.38	6492.00
761.54	7193.00
761.70	7765.00
761.86	7278.00
762.02	7100.00
762.18	7070.00
762.34	7357.00
762.50	7308.00
762.66	7219.00
762.82	6918.00
762.98	6344.00
763.14	7347.00
763.30	7404.00
763.46	6718.00
763.62	7788.00
763.78	7363.00
763.94	6580.00
764.10	6732.00
764.26	6677.00
764.42	7188.00
764.58	7610.00
764.74	6852.00
764.90	6835.00
765.05	7080.00
765.21	6453.00
765.37	7209.00
765.53	7893.00
765.69	6626.00
765.85	7378.00
766.01	6697.00
766.17	6597.00
766.33	6905.00
766.49	7149.00
766.65	7354.00
766.81	7127.00
766.97	6758.00
767.13	6532.00
767.29	6831.00
767.44	6638.00
767.60	6777.00
767.76	7116.00
767.92	7110.00
768.08	7156.00
768.24	6476.00
768.40	7077.00
768.56	6869.00
768.72	6744.00
768.88	7731.00
769.03	7239.00
769.19	6408.00
769.35	7079.00
769.51	7288.00
769.67	7509.00
769.83	7346.00
769.99	6736.00
770.14	6524.00
770.30	6389.00
770.46	7142.00
770.62	7427.00
770.78	7248.00
770.94	7148.00
771.09	6613.00
771.25	6603.00
771.41	6897.00
771.57	7458.00
771.73	7323.00
771.89	7553.00
772.04	7054.00
772.20	6732.00
772.36	6883.00
772.52	6978.00
772.68	7091.00
772.83	6931.00
772.99	6719.00
773.15	7269.00
773.31	6917.00
773.46	7036.00
773.62	7088.00
773.78	6513.00
773.94	6916.00
774.10	7384.00
774.25	7075.00
774.41	6872.00
774.57	6974.00
774.73	6877.00
774.88	6342.00
775.04	6530.00
775.20	6929.00
775.36	6071.00
775.51	6236.00
775.67	6854.00
775.83	7168.00
775.98	6868.00
776.14	7817.00
776.30	7327.00
776.46	7222.00
776.61	7301.00
776.77	7188.00
776.93	7256.00
777.08	6430.00
777.24	6747.00
777.40	6944.00
777.56	6841.00
777.71	7254.00
777.87	7520.00
778.03	6024.00
778.18	7323.00
778.34	6575.00
778.50	7016.00
778.65	6979.00
778.81	7004.00
778.97	6777.00
779.12	7072.00
779.28	6508.00
779.44	7088.00
779.59	7281.00
779.75	6919.00
779.90	6769.00
780.06	7537.00
780.22	7669.00
780.37	7655.00
780.53	7040.00
780.69	7148.00
780.84	6622.00
781.00	7956.00
781.15	7071.00
781.31	6421.00
781.47	7405.00
781.62	6708.00
781.78	7215.00
781.93	6340.00
782.09	7319.00
782.25	6812.00
782.40	6521.00
782.56	6729.00
782.71	6902.00
782.87	7050.00
783.02	6959.00
783.18	7156.00
783.34	7572.00
783.49	7114.00
783.65	7650.00
783.80	6991.00
783.96	6593.00
784.11	6911.00
784.27	7154.00
784.42	7072.00
784.58	7717.00
784.73	6538.00
784.89	6917.00
785.05	6931.00
785.20	7464.00
785.36	6671.00
785.51	7113.00
785.67	6884.00
785.82	6928.00
785.98	7877.00
786.13	7037.00
786.29	6560.00
786.44	7331.00
786.60	6486.00
786.75	7134.00
786.91	7238.00
787.06	6728.00
787.21	6821.00
787.37	7039.00
787.52	6742.00
787.68	7216.00
787.83	6888.00
787.99	6760.00
788.14	7595.00
788.30	6535.00
788.45	7102.00
788.61	7099.00
788.76	7342.00
788.91	7344.00
789.07	6841.00
789.22	7290.00
789.38	7027.00
789.53	7067.00
789.69	7216.00
789.84	7565.00
789.99	6687.00
790.15	6655.00
790.30	7247.00
790.46	7370.00
790.61	7109.00
790.76	7165.00
790.92	7257.00
791.07	6787.00
791.23	6859.00
791.38	7005.00
791.53	7296.00
791.69	6781.00
791.84	8482.00
791.99	7021.00
792.15	6572.00
792.30	7224.00
792.46	7958.00
792.61	7015.00
792.76	7041.00
792.92	6933.00
793.07	7180.00
793.22	7013.00
793.38	6797.00
793.53	7893.00
793.68	7302.00
793.84	6882.00
793.99	6901.00
794.14	7217.00
794.30	6720.00
794.45	6735.00
794.60	7489.00
794.75	6771.00
794.91	7318.00
795.06	6780.00
795.21	7313.00
795.37	6641.00
795.52	7390.00
795.67	6777.00
795.83	7552.00
795.98	7118.00
796.13	7110.00
796.28	7271.00
796.44	7320.00
796.59	6603.00
796.74	6602.00
796.89	7839.00
797.05	6625.00
797.20	6534.00
797.35	6523.00
797.50	6831.00
797.66	7412.00
797.81	6853.00
797.96	7317.00
798.11	6827.00
798.27	7085.00
798.42	5717.00
798.57	15242.00
798.72	7475.00
798.87	6848.00
799.03	6968.00
799.18	7099.00
799.33	6753.00
799.48	6745.00
799.63	7257.00
799.79	6824.00
799.94	6375.00
800.09	6914.00
800.24	6555.00
800.39	7335.00
800.54	7594.00
800.70	6850.00
800.85	6667.00
801.00	7340.00
801.15	6558.00
801.30	6479.00
801.45	6856.00
801.61	6351.00
801.76	6750.00
801.91	6924.00
802.06	6824.00
802.21	7077.00
802.36	6059.00
802.51	7257.00
802.67	7008.00
802.82	7087.00
802.97	6891.00
803.12	7427.00
803.27	6975.00
803.42	6908.00
803.57	6882.00
803.72	6580.00
803.87	6406.00
804.02	7276.00
804.18	6636.00
804.33	7073.00
804.48	7791.00
804.63	6670.00
804.78	6749.00
804.93	6419.00
805.08	6712.00
805.23	6678.00
805.38	6589.00
805.53	6960.00
805.68	6585.00
805.83	6257.00
805.98	6490.00
806.13	6193.00
806.28	6774.00
806.44	6485.00
806.59	7108.00
806.74	7063.00
806.89	6456.00
807.04	7231.00
807.19	6601.00
807.34	6680.00
807.49	6308.00
807.64	6984.00
807.79	6678.00
807.94	6372.00
808.09	6812.00
808.24	6602.00
808.39	6732.00
808.54	6558.00
808.69	7100.00
808.84	6492.00
808.99	6841.00
809.14	6977.00
809.29	7038.00
809.44	7231.00
809.58	6976.00
809.73	6490.00
809.88	6472.00
810.03	6736.00
810.18	6841.00
810.33	6891.00
810.48	6742.00
810.63	6878.00
810.78	6994.00
810.93	7157.00
811.08	7149.00
811.23	7166.00
811.38	6429.00
811.53	6770.00
811.68	6929.00
811.83	7146.00
811.97	7015.00
812.12	7407.00
812.27	7281.00
812.42	6789.00
812.57	6678.00
812.72	6630.00
812.87	6896.00
813.02	6305.00
813.17	6752.00
813.31	7452.00
813.46	6666.00
813.61	6674.00
813.76	6646.00
813.91	6723.00
814.06	7028.00
814.21	6593.00
814.35	6670.00
814.50	6744.00
814.65	6756.00
814.80	6380.00
814.95	7116.00
815.10	7321.00
815.25	6690.00
815.39	5964.00
815.54	6742.00
815.69	6084.00
815.84	6206.00
815.99	6627.00
816.13	6560.00
816.28	6417.00
816.43	7126.00
816.58	6705.00
816.73	6978.00
816.87	6622.00
817.02	6274.00
817.17	7267.00
817.32	7002.00
817.47	7492.00
817.61	7045.00
817.76	6882.00
817.91	6062.00
818.06	6623.00
818.20	6587.00
818.35	7231.00
818.50	7031.00
818.65	6905.00
818.79	7468.00
818.94	7088.00
819.09	6208.00
819.24	6669.00
819.38	6688.00
819.53	6655.00
819.68	7002.00
819.83	5889.00
819.97	6622.00
820.12	6518.00
820.27	6064.00
820.41	6798.00
820.56	6696.00
820.71	6955.00
820.86	6518.00
821.00	7550.00
821.15	6816.00
821.30	6643.00
821.44	7639.00
821.59	7136.00
821.74	6645.00
821.88	6709.00
822.03	6295.00
822.18	7309.00
822.32	6295.00
822.47	6746.00
822.62	6645.00
822.76	6794.00
822.91	6525.00
823.06	6391.00
823.20	6296.00
823.35	7389.00
823.49	6345.00
823.64	6653.00
823.79	6883.00
823.93	6392.00
824.08	6882.00
824.23	6653.00
824.37	7454.00
824.52	6227.00
824.66	6706.00
824.81	6764.00
824.96	6824.00
825.10	6498.00
825.25	6883.00
825.39	6673.00
825.54	6780.00
825.69	6457.00
825.83	6922.00
825.98	6924.00
826.12	6812.00
826.27	6719.00
826.41	6923.00
826.56	6787.00
826.71	7023.00
826.85	7027.00
827.00	7045.00
827.14	6543.00
827.29	7031.00
827.43	6974.00
827.58	7185.00
827.72	7551.00
827.87	6298.00
828.01	6731.00
828.16	6514.00
828.30	6608.00
828.45	6716.00
828.59	7095.00
828.74	7098.00
828.89	5929.00
829.03	7198.00
829.18	6983.00
829.32	7110.00
829.46	7000.00
829.61	6855.00
829.75	7257.00
829.90	7170.00
830.04	6805.00
830.19	6879.00
830.33	6464.00
830.48	6720.00
830.62	6129.00
830.77	6697.00
830.91	7222.00
831.06	6793.00
831.20	6707.00
831.35	6957.00
831.49	6584.00
831.63	6282.00
831.78	7020.00
831.92	6708.00
832.07	7108.00
832.21	7145.00
832.36	6885.00
832.50	6528.00
832.64	7154.00
832.79	6676.00
832.93	6337.00
833.08	7205.00
833.22	7042.00
833.36	7533.00
833.51	6448.00
833.65	6897.00
833.80	7585.00
833.94	6564.00
834.08	6573.00
834.23	7762.00
834.37	6992.00
834.51	6805.00
834.66	6477.00
834.80	6310.00
834.95	6487.00
835.09	6880.00
835.23	7070.00
835.38	6888.00
835.52	7433.00
835.66	6483.00
835.81	6605.00
835.95	6696.00
836.09	6644.00
836.24	7430.00
836.38	6584.00
836.52	6746.00
836.67	6461.00
836.81	7646.00
836.95	6979.00
837.10	6963.00
837.24	6718.00
837.38	6620.00
837.52	6609.00
837.67	6749.00
837.81	6609.00
837.95	6780.00
838.10	6397.00
838.24	6563.00
838.38	6776.00
838.52	6955.00
838.67	6498.00
838.81	6442.00
838.95	6647.00
839.09	6593.00
839.24	7033.00
839.38	7019.00
839.52	6883.00
839.66	6896.00
839.81	6852.00
839.95	6603.00
840.09	6949.00
840.23	6639.00
840.38	7346.00
840.52	6795.00
840.66	6686.00
840.80	6675.00
840.94	6680.00
841.09	7207.00
841.23	6366.00
841.37	6872.00
841.51	7181.00
841.65	6831.00
841.80	6665.00
841.94	6646.00
842.08	6775.00
842.22	6814.00
842.36	6669.00
842.50	7142.00
842.65	7365.00
842.79	7133.00
842.93	6688.00
843.07	6335.00
843.21	7023.00
843.35	7163.00
843.50	6504.00
843.64	6430.00
843.78	6028.00
843.92	6326.00
844.06	6542.00
844.20	6349.00
844.34	6953.00
844.48	6559.00
844.63	7318.00
844.77	7048.00
844.91	6756.00
845.05	7002.00
845.19	6456.00
845.33	7076.00
845.47	7595.00
845.61	6738.00
845.75	7121.00
845.90	6829.00
846.04	7003.00
846.18	6444.00
846.32	6408.00
846.46	6570.00
846.60	6847.00
846.74	6783.00
846.88	6200.00
847.02	6418.00
847.16	6819.00
847.30	7391.00
847.44	7095.00
847.58	6399.00
847.72	7119.00
847.86	8098.00
848.00	6387.00
848.14	6738.00
848.28	7083.00
848.42	6985.00
848.56	6951.00
848.70	6693.00
848.84	7094.00
848.99	6813.00
849.13	7200.00
849.27	7242.00
849.41	6037.00
849.54	6757.00
849.68	6377.00
849.82	7321.00
849.96	6753.00
850.10	6667.00
850.24	6719.00
850.38	6822.00
850.52	6312.00
850.66	6811.00
850.80	6411.00
850.94	6296.00
851.08	6905.00
851.22	5948.00
851.36	6795.00
851.50	5324.00
851.64	3842.00
851.78	4658.00
851.92	4582.00
852.06	7728.00
852.20	7971.00
852.34	7446.00
852.48	7627.00
852.61	8090.00
852.75	7587.00
852.89	7036.00
853.03	6885.00
853.17	6289.00
853.31	6528.00
853.45	6624.00
853.59	6509.00
853.73	4599.00
853.87	5021.00
854.00	4618.00
854.14	4248.00
